Dividing Wavelength (nm)	Counts (n)	Blue Motor Position (mm): 0.000000	Red Motor Position (mm): 34.500000	
326.493990	1.001653
326.888308	1.001653
327.282561	1.001653
327.676750	1.000345
328.070874	0.998991
328.464933	0.999033
328.858929	0.999461
329.252859	0.999164
329.646726	0.999648
330.040528	1.001023
330.434265	1.000208
330.827938	1.000437
331.221547	1.001027
331.615091	1.000342
332.008571	1.000141
332.401986	1.000250
332.795338	1.000539
333.188625	0.998651
333.581847	1.000066
333.975006	0.999635
334.368100	0.999547
334.761129	0.999982
335.154095	1.000573
335.546996	0.999476
335.939833	0.996177
336.332606	0.995770
336.725315	0.996481
337.117960	0.997928
337.510540	0.997234
337.903056	0.996990
338.295508	0.996659
338.687896	0.997196
339.080220	0.997506
339.472480	0.995959
339.864676	0.996297
340.256807	0.997476
340.648875	0.996726
341.040879	0.998107
341.432818	0.996325
341.824694	0.995801
342.216506	0.997075
342.608253	0.996519
342.999937	0.996420
343.391557	0.997341
343.783113	0.996329
344.174605	0.996840
344.566033	0.997156
344.957397	0.996761
345.348697	0.995856
345.739934	0.996647
346.131106	0.996099
346.522215	0.996339
346.913260	0.996714
347.304241	0.995951
347.695159	0.996748
348.086012	0.995146
348.476802	0.998094
348.867528	0.997326
349.258191	0.994964
349.648789	0.997841
350.039324	0.995742
350.429796	0.997130
350.820203	0.997273
351.210548	0.996805
351.600828	0.996441
351.991045	0.996112
352.381198	0.996034
352.771288	0.996181
353.161314	0.997120
353.551276	0.997537
353.941175	0.996181
354.331010	0.996096
354.720782	0.996957
355.110490	0.995843
355.500135	0.997227
355.889717	0.997093
356.279235	0.996655
356.668689	0.995981
357.058080	0.995686
357.447408	0.997738
357.836672	0.997534
358.225873	0.997158
358.615010	0.996811
359.004084	0.997650
359.393095	0.996771
359.782043	0.996372
360.170927	0.998192
360.559748	0.997329
360.948505	0.996138
361.337199	0.995833
361.725830	0.996561
362.114398	0.996115
362.502903	0.997384
362.891344	0.997563
363.279722	0.996483
363.668037	0.997066
364.056289	0.997542
364.444478	0.998521
364.832603	0.997076
365.220665	0.996223
365.608665	0.997115
365.996601	0.997268
366.384474	0.997703
366.772284	0.997117
367.160031	0.995309
367.547715	0.996208
367.935336	0.996918
368.322893	0.996556
368.710388	0.996517
369.097820	0.995855
369.485189	0.997044
369.872495	0.997254
370.259738	0.995058
370.646918	0.997688
371.034035	0.997401
371.421090	0.996807
371.808081	0.995994
372.195010	0.997050
372.581875	0.997290
372.968678	0.996955
373.355418	0.997292
373.742096	0.996975
374.128710	0.998149
374.515262	0.997266
374.901751	0.997122
375.288177	0.997849
375.674540	0.997852
376.060841	0.996695
376.447079	0.997496
376.833254	0.997192
377.219367	0.998415
377.605417	0.998096
377.991404	0.997542
378.377329	0.997233
378.763191	0.997380
379.148991	0.998112
379.534727	0.998107
379.920402	0.998255
380.306013	0.996112
380.691563	0.998175
381.077049	0.997756
381.462474	0.998163
381.847835	0.998028
382.233134	0.997431
382.618371	0.998689
383.003545	0.997255
383.388657	0.997751
383.773706	0.998720
384.158693	0.997554
384.543618	0.997866
384.928480	0.997955
385.313280	0.998569
385.698017	0.998079
386.082692	0.998907
386.467305	0.997736
386.851856	0.997529
387.236344	0.998490
387.620770	0.997849
388.005133	0.998825
388.389435	0.999164
388.773674	0.997701
389.157851	0.998025
389.541965	0.998393
389.926018	0.997736
390.310008	0.998868
390.693936	0.998170
391.077802	0.999191
391.461606	0.998734
391.845348	0.998536
392.229027	0.999373
392.612645	0.998521
392.996200	0.999904
393.379694	0.998849
393.763125	0.999555
394.146494	0.998852
394.529801	0.998686
394.913047	0.999255
395.296230	0.998509
395.679351	0.998652
396.062410	0.999106
396.445408	1.000386
396.828343	0.998739
397.211217	0.999122
397.594028	0.999495
397.976778	0.998793
398.359466	0.998217
398.742092	0.998772
399.124656	0.999350
399.507158	0.999497
399.889598	0.999405
400.271977	0.999424
400.654294	0.999877
401.036549	0.998910
401.418742	1.000164
401.800874	0.997720
402.182944	0.998937
402.564952	0.998777
402.946898	1.000300
403.328783	0.999969
403.710606	0.998906
404.092367	0.999350
404.474067	1.000528
404.855705	0.999164
405.237282	0.999204
405.618797	0.999361
406.000250	0.998908
406.381642	1.000198
406.762972	0.999558
407.144240	0.999826
407.525447	0.999843
407.906593	1.000654
408.287677	0.999531
408.668700	0.999352
409.049661	0.998552
409.430560	0.999693
409.811399	0.999320
410.192176	0.999845
410.572891	0.999284
410.953545	0.998984
411.334138	0.999080
411.714669	0.999442
412.095139	0.998567
412.475547	1.000012
412.855894	0.998954
413.236180	1.000768
413.616405	0.999414
413.996568	0.999548
414.376670	0.999475
414.756711	0.998409
415.136691	0.998821
415.516609	0.999317
415.896466	0.999174
416.276262	0.999137
416.655997	0.999795
417.035670	0.998761
417.415283	0.999413
417.794834	0.999572
418.174324	0.998956
418.553753	0.999846
418.933121	0.998736
419.312428	0.999485
419.691674	0.999838
420.070859	1.000168
420.449983	0.999424
420.829045	0.999705
421.208047	0.999728
421.586988	1.000383
421.965867	0.999688
422.344686	1.000241
422.723444	0.999467
423.102141	0.999712
423.480777	0.999413
423.859352	0.999402
424.237866	0.999789
424.616319	1.000112
424.994712	1.000556
425.373044	1.000074
425.751314	1.000275
426.129524	0.999565
426.507673	0.999756
426.885762	1.000125
427.263789	1.000324
427.641756	1.000115
428.019662	1.000572
428.397508	0.999122
428.775292	0.998427
429.153016	1.000983
429.530679	0.999861
429.908282	1.000515
430.285824	0.999389
430.663305	0.999590
431.040726	0.999203
431.418086	1.000465
431.795385	0.999795
432.172624	0.999378
432.549802	1.000454
432.926920	1.000024
433.303977	0.999722
433.680974	1.000321
434.057910	0.999751
434.434786	1.000273
434.811601	0.999859
435.188355	0.998975
435.565050	1.000038
435.941683	0.999850
436.318257	1.000942
436.694770	0.998775
437.071222	1.000331
437.447614	1.000775
437.823946	0.999937
438.200218	1.000082
438.576429	1.000238
438.952580	0.999959
439.328670	0.999325
439.704700	1.000188
440.080670	1.000251
440.456580	1.000214
440.832429	0.999775
441.208218	0.999740
441.583947	1.000914
441.959616	1.000018
442.335224	0.999985
442.710773	1.000549
443.086261	1.000042
443.461689	0.999695
443.837057	1.000500
444.212365	1.000342
444.587612	0.999328
444.962800	0.999645
445.337927	1.000078
445.712995	1.000943
446.088002	1.000870
446.462949	1.000396
446.837837	0.999979
447.212664	0.999717
447.587431	0.999827
447.962139	1.000004
448.336786	1.000362
448.711374	1.000680
449.085901	0.999271
449.460369	1.000260
449.834776	0.999348
450.209124	1.001024
450.583412	0.999979
450.957640	0.999848
451.331808	0.999606
451.705917	1.000720
452.079965	0.999318
452.453954	1.000411
452.827883	1.000293
453.201752	1.000546
453.575562	1.000008
453.949311	1.000516
454.323001	0.999671
454.696632	1.000110
455.070202	1.000021
455.443713	0.999244
455.817164	1.000026
456.190556	1.000078
456.563888	1.000992
456.937160	1.000482
457.310373	0.999737
457.683526	0.999804
458.056619	1.000108
458.429653	1.000192
458.802628	0.999337
459.175542	0.999978
459.548398	1.000376
459.921194	0.999974
460.293930	0.999902
460.666607	0.999654
461.039224	0.998965
461.411782	1.000517
461.784280	0.999814
462.156719	1.000933
462.529099	1.000035
462.901419	0.999951
463.273680	1.000714
463.645882	1.000258
464.018024	0.999627
464.390106	1.000112
464.762130	1.000595
465.134094	1.000232
465.505999	1.000876
465.877845	1.000269
466.249631	1.001338
466.621358	1.000139
466.993026	1.000741
467.364634	1.000088
467.736184	1.000539
468.107674	1.000696
468.479105	0.999592
468.850477	1.000195
469.221790	1.000628
469.593043	1.000291
469.964238	1.000827
470.335373	1.000240
470.706449	1.001018
471.077467	1.000845
471.448425	1.000314
471.819324	1.001303
472.190164	0.999678
472.560945	1.000206
472.931667	0.999934
473.302330	0.999458
473.672934	1.001175
474.043479	1.000414
474.413965	0.999641
474.784393	1.000126
475.154761	0.999683
475.525070	0.999862
475.895321	1.000829
476.265513	1.000448
476.635645	1.000203
477.005719	1.000644
477.375734	0.999981
477.745691	0.999786
478.115588	1.000304
478.485427	1.000342
478.855207	0.999447
479.224928	1.000148
479.594591	1.000598
479.964194	1.000312
480.333739	1.000247
480.703226	1.000085
481.072653	1.000834
481.442022	1.001049
481.811333	1.000061
482.180584	1.000650
482.549777	1.000259
482.918912	1.000755
483.287988	1.000305
483.657005	1.000408
484.025964	1.001154
484.394864	1.000328
484.763706	1.000253
485.132489	1.000755
485.501213	1.000365
485.869879	1.000394
486.238487	1.000678
486.607036	1.000131
486.975527	0.999463
487.343959	1.000011
487.712333	0.999662
488.080648	1.000460
488.448905	1.000389
488.817104	1.000857
489.185244	1.000211
489.553326	1.000634
489.921350	0.999827
490.289315	0.999745
490.657222	1.000073
491.025070	1.000458
491.392861	1.000636
491.760593	1.000578
492.128267	1.000083
492.495883	0.999357
492.863440	1.000401
493.230939	0.999990
493.598380	1.000081
493.965763	0.999794
494.333088	0.999306
494.700354	0.999268
495.067563	0.999935
495.434713	0.998220
495.801805	0.999653
496.168839	0.999543
496.535815	0.998464
496.902733	0.998808
497.269593	0.997871
497.636395	0.998539
498.003139	0.998547
498.369825	0.998579
498.736453	0.997716
499.103023	0.996829
499.469535	0.997267
499.835989	0.997161
500.202385	0.996928
500.568723	0.996232
500.935003	0.996483
501.301226	0.995607
501.667390	0.995217
502.033497	0.995380
502.399546	0.995357
502.765537	0.994572
503.131470	0.993600
503.497345	0.993178
503.863163	0.993333
504.228923	0.992388
504.594625	0.992306
504.960269	0.991437
505.325856	0.991010
505.691385	0.990108
506.056856	0.989277
506.422270	0.988970
506.787625	0.988499
507.152924	0.987098
507.518164	0.986350
507.883347	0.985743
508.248472	0.984167
508.613540	0.984311
508.978550	0.982960
509.343503	0.981815
509.708398	0.980981
510.073236	0.979779
510.438016	0.978991
510.802738	0.977078
511.167403	0.976549
511.532010	0.974346
511.896561	0.973500
512.261053	0.973022
512.625488	0.970611
512.989866	0.969144
513.354186	0.968380
513.718449	0.966822
514.082655	0.964837
514.446803	0.963413
514.810894	0.962298
515.174927	0.960060
515.538904	0.957768
515.902822	0.955625
516.266684	0.954435
516.630488	0.952920
516.994235	0.950684
517.357925	0.947654
517.721558	0.946207
518.085133	0.942725
518.448651	0.942458
518.812112	0.939162
519.175516	0.936669
519.538863	0.934474
519.902152	0.931529
520.265385	0.927925
520.628560	0.926179
520.991678	0.922893
521.354739	0.920967
521.717743	0.917791
522.080690	0.915806
522.443580	0.910989
522.806413	0.908296
523.169189	0.904906
523.531908	0.901926
523.894569	0.899002
524.257174	0.895858
524.619722	0.892416
524.982213	0.889895
525.344647	0.885200
525.707025	0.881725
526.069345	0.877566
526.431608	0.873740
526.793815	0.870154
527.155964	0.866855
527.518057	0.863304
527.880093	0.860329
528.242072	0.856091
528.603995	0.851357
528.965860	0.848376
529.327669	0.843851
529.689421	0.839646
530.051117	0.837049
530.412755	0.830196
530.774337	0.828429
531.135862	0.822109
531.497331	0.818949
531.858743	0.814881
532.220098	0.809731
532.581396	0.806262
532.942638	0.801811
533.303824	0.797567
533.664953	0.792019
534.026025	0.788702
534.387040	0.782678
534.747999	0.778656
535.108902	0.773502
535.469748	0.770245
535.830537	0.764507
536.191270	0.760178
536.551947	0.754449
536.912567	0.749744
537.273131	0.746377
537.633638	0.740630
537.994089	0.736153
538.354483	0.731201
538.714821	0.725540
539.075103	0.720357
539.435328	0.715216
539.795497	0.712650
540.155609	0.704930
540.515665	0.699944
540.875665	0.697122
541.235609	0.690760
541.595496	0.686452
541.955328	0.678892
542.315102	0.676162
542.674821	0.671521
543.034483	0.666682
543.394090	0.661182
543.753640	0.657906
544.113134	0.649380
544.472571	0.646396
544.831953	0.639161
545.191278	0.636317
545.550548	0.631215
545.909761	0.624649
546.268918	0.619670
546.628019	0.614191
546.987064	0.609793
547.346053	0.607507
547.704986	0.599898
548.063863	0.595496
548.422684	0.592042
548.781449	0.586849
549.140158	0.580988
549.498811	0.577734
549.857408	0.575464
550.215949	0.566029
550.574434	0.563807
550.932864	0.556738
551.291237	0.552711
551.649555	0.547434
552.007817	0.542659
552.366022	0.538713
552.724173	0.534641
553.082267	0.530367
553.440305	0.522089
553.798288	0.522514
554.156215	0.514085
554.514086	0.510267
554.871902	0.508517
555.229661	0.503392
555.587365	0.499403
555.945014	0.498129
556.302606	0.489797
556.660143	0.488932
557.017625	0.480587
557.375050	0.478600
557.732421	0.472253
558.089735	0.468869
558.446994	0.465361
558.804197	0.460711
559.161345	0.456627
559.518437	0.456141
559.875474	0.449083
560.232455	0.445090
560.589381	0.443165
560.946251	0.437231
561.303065	0.433437
561.659825	0.430039
562.016528	0.427649
562.373177	0.427057
562.729770	0.420347
563.086307	0.418642
563.442789	0.414014
563.799216	0.411565
564.155587	0.407882
564.511904	0.404768
564.868164	0.401858
565.224370	0.398733
565.580520	0.396149
565.936615	0.393832
566.292654	0.392128
566.648638	0.387176
567.004567	0.384530
567.360441	0.382061
567.716260	0.380900
568.072023	0.376198
568.427732	0.373351
568.783385	0.373662
569.138982	0.368762
569.494525	0.365576
569.850013	0.365271
570.205445	0.360942
570.560823	0.361424
570.916145	0.359815
571.271412	0.356212
571.626625	0.354361
571.981782	0.352574
572.336884	0.351064
572.691931	0.348807
573.046923	0.347151
573.401860	0.346200
573.756743	0.345492
574.111570	0.342032
574.466342	0.340782
574.821059	0.338006
575.175722	0.338571
575.530330	0.335945
575.884882	0.334428
576.239380	0.334274
576.593823	0.332950
576.948211	0.330605
577.302544	0.332503
577.656823	0.329602
578.011047	0.328585
578.365216	0.327194
578.719330	0.327519
579.073389	0.325992
579.427394	0.325732
579.781344	0.325120
580.135239	0.324924
580.489080	0.323184
580.842866	0.324122
581.196597	0.323127
581.550273	0.320675
581.903895	0.319884
582.257463	0.317328
582.610975	0.319309
582.964434	0.317691
583.317837	0.318629
583.671186	0.317998
584.024481	0.317000
584.377721	0.318165
584.730906	0.317795
585.084037	0.315752
585.437113	0.316543
585.790135	0.315141
586.143103	0.316704
586.496016	0.317311
586.848874	0.313860
587.201679	0.314043
587.554428	0.316196
587.907124	0.314191
588.259765	0.314208
588.612352	0.313955
588.964884	0.316882
589.317362	0.315976
589.669786	0.314991
590.022155	0.312972
590.374470	0.311437
590.726731	0.313153
591.078937	0.317093
591.431090	0.312582
591.783188	0.316121
592.135232	0.315845
592.487222	0.315592
592.839157	0.313520
593.191038	0.315312
593.542866	0.316480
593.894639	0.319332
594.246358	0.316969
594.598022	0.315874
594.949633	0.319543
595.301190	0.319738
595.652692	0.318594
596.004141	0.314249
596.355535	0.321938
596.706876	0.321755
597.058162	0.324039
597.409395	0.321069
597.760573	0.318308
598.111698	0.321349
598.462768	0.321326
598.813785	0.322402
599.164748	0.323106
599.515657	0.323229
599.866511	0.326282
600.217312	0.321720
600.568060	0.326807
600.918753	0.323020
601.269392	0.323451
601.619978	0.326495
601.970510	0.324044
602.320988	0.324423
602.671412	0.321666
603.021783	0.324069
603.372100	0.325266
603.722363	0.324213
604.072572	0.325480
604.422728	0.325127
604.772830	0.326827
605.122878	0.326423
605.472872	0.326661
605.822813	0.325079
606.172701	0.327389
606.522534	0.325161
606.872314	0.324631
607.222041	0.325533
607.571714	0.323564
607.921333	0.325177
608.270899	0.324604
608.620411	0.321234
608.969870	0.324903
609.319276	0.325126
609.668627	0.324847
610.017926	0.323189
610.367171	0.322035
610.716362	0.322482
611.065500	0.322181
611.414585	0.321187
611.763616	0.322042
612.112594	0.321996
612.461518	0.321695
612.810389	0.318944
613.159207	0.321528
613.507971	0.323293
613.856682	0.318847
614.205340	0.320498
614.553945	0.317367
614.902496	0.321024
615.250994	0.318913
615.599439	0.319540
615.947830	0.319115
616.296169	0.319729
616.644454	0.319622
616.992686	0.319430
617.340864	0.317206
617.688990	0.321021
618.037063	0.317623
618.385082	0.319310
618.733048	0.316064
619.080961	0.318110
619.428821	0.317813
619.776628	0.317221
620.124382	0.319012
620.472083	0.319190
620.819731	0.318699
621.167326	0.322669
621.514868	0.322582
621.862357	0.326779
622.209793	0.325772
622.557176	0.328191
622.904506	0.329384
623.251783	0.331443
623.599007	0.333849
623.946179	0.333534
624.293297	0.335302
624.640363	0.339138
624.987376	0.339650
625.334336	0.342058
625.681243	0.344178
626.028097	0.344802
626.374899	0.345942
626.721647	0.346283
627.068343	0.349761
627.414987	0.350047
627.761577	0.352328
628.108115	0.351057
628.454600	0.356009
628.801032	0.353089
629.147412	0.355212
629.493739	0.355567
629.840014	0.358709
630.186236	0.356353
630.532405	0.361801
630.878521	0.358887
631.224585	0.361484
631.570597	0.365040
631.916556	0.363087
632.262462	0.363581
632.608316	0.365716
632.954117	0.366192
633.299866	0.367587
633.645562	0.367394
633.991206	0.371488
634.336797	0.375001
634.682336	0.376823
635.027823	0.378731
635.373257	0.379126
635.718639	0.382693
636.063968	0.382113
636.409245	0.387281
636.754470	0.387721
637.099642	0.390138
637.444762	0.393903
637.789829	0.392670
638.134845	0.396405
638.479808	0.397489
638.824719	0.396994
639.169577	0.401227
639.514383	0.399961
639.859137	0.404086
640.203839	0.403845
640.548489	0.403965
640.893086	0.405277
641.237632	0.407668
641.582125	0.405984
641.926566	0.407683
642.270955	0.407855
642.615292	0.407988
642.959576	0.407164
643.303809	0.407285
643.647990	0.407219
643.992118	0.407594
644.336195	0.410912
644.680219	0.409416
645.024192	0.410109
645.368112	0.404033
645.711981	0.402719
646.055797	0.397730
646.399562	0.400424
646.743274	0.392276
647.086935	0.389758
647.430544	0.390373
647.774101	0.389216
648.117606	0.388586
648.461059	0.389013
648.804460	0.391489
649.147810	0.396867
649.491108	0.398358
649.834354	0.400112
650.177548	0.405219
650.520690	0.410580
650.863781	0.411822
651.206820	0.410974
651.549807	0.415687
651.892742	0.419816
652.235626	0.419872
652.578458	0.420280
652.921238	0.425957
653.263967	0.424179
653.606644	0.427891
653.949269	0.427940
654.291843	0.431913
654.634365	0.428026
654.976836	0.431500
655.319255	0.431282
655.661622	0.433661
656.003938	0.433480
656.346203	0.436405
656.688416	0.434020
657.030577	0.437727
657.372687	0.439460
657.714746	0.440516
658.056753	0.437179
658.398708	0.441561
658.740612	0.442124
659.082465	0.438332
659.424266	0.439120
659.766016	0.438620
660.107715	0.440943
660.449362	0.440069
660.790958	0.440693
661.132503	0.441197
661.473996	0.438842
661.815438	0.439571
662.156829	0.439893
662.498168	0.440007
662.839456	0.441668
663.180693	0.439714
663.521879	0.439373
663.863013	0.440666
664.204097	0.439684
664.545129	0.435902
664.886110	0.435947
665.227040	0.433781
665.567918	0.436548
665.908746	0.434608
666.249522	0.433697
666.590248	0.434864
666.930922	0.432775
667.271545	0.431780
667.612118	0.432537
667.952639	0.434213
668.293109	0.432808
668.633528	0.435408
668.973896	0.435530
669.314213	0.435746
669.654480	0.437605
669.994695	0.437553
670.334859	0.438467
670.674973	0.438763
671.015035	0.438842
671.355047	0.438617
671.695008	0.439247
672.034918	0.441517
672.374777	0.440724
672.714585	0.441992
673.054342	0.441732
673.394049	0.441989
673.733705	0.439995
674.073310	0.441572
674.412864	0.444412
674.752368	0.444213
675.091820	0.444761
675.431223	0.448921
675.770574	0.448417
676.109875	0.452406
676.449125	0.452299
676.788324	0.454260
677.127473	0.460047
677.466571	0.458882
677.805619	0.461143
678.144616	0.462010
678.483562	0.463960
678.822458	0.466012
679.161303	0.467035
679.500098	0.467421
679.838842	0.469604
680.177535	0.468671
680.516179	0.467539
680.854771	0.466004
681.193314	0.460294
681.531805	0.451455
681.870247	0.439652
682.208638	0.432572
682.546978	0.431043
682.885268	0.432743
683.223508	0.439516
683.561697	0.442874
683.899836	0.446057
684.237925	0.448964
684.575963	0.451509
684.913951	0.454792
685.251889	0.450316
685.589776	0.452175
685.927614	0.455102
686.265401	0.449631
686.603137	0.450248
686.940824	0.444814
687.278460	0.443186
687.616046	0.442208
687.953582	0.437259
688.291068	0.438582
688.628504	0.434050
688.965889	0.436176
689.303224	0.440201
689.640510	0.444472
689.977745	0.449976
690.314930	0.458214
690.652065	0.462352
690.989150	0.470648
691.326185	0.476389
691.663170	0.480965
692.000105	0.488541
692.336990	0.495865
692.673825	0.497518
693.010610	0.504805
693.347345	0.510378
693.684030	0.510776
694.020665	0.516212
694.357251	0.524924
694.693786	0.525187
695.030272	0.528500
695.366707	0.532327
695.703093	0.535397
696.039429	0.533671
696.375716	0.534684
696.711952	0.538466
697.048139	0.540060
697.384276	0.541066
697.720363	0.540372
698.056400	0.539154
698.392388	0.544867
698.728326	0.548600
699.064214	0.550838
699.400053	0.551205
699.735842	0.554628
700.071581	0.557616
700.407270	0.561041
700.742910	0.563042
701.078501	0.569557
701.414042	0.569746
701.749533	0.572761
702.084974	0.581650
702.420366	0.574312
702.755709	0.581826
703.091002	0.588943
703.426246	0.582720
703.761440	0.588652
704.096584	0.593161
704.431679	0.590051
704.766725	0.592183
705.101721	0.593823
705.436668	0.589887
705.771565	0.596671
706.106413	0.593879
706.441212	0.588857
706.775961	0.587257
707.110661	0.590259
707.445311	0.586998
707.779913	0.584658
708.114465	0.583155
708.448967	0.579487
708.783421	0.571567
709.117825	0.566335
709.452180	0.566117
709.786485	0.560249
710.120742	0.549562
710.454949	0.552304
710.789107	0.544435
711.123216	0.535454
711.457275	0.537111
711.791286	0.528371
712.125247	0.526301
712.459159	0.537744
712.793023	0.530142
713.126837	0.535097
713.460602	0.534452
713.794318	0.544389
714.127985	0.543386
714.461602	0.553058
714.795171	0.556555
715.128691	0.564179
715.462162	0.571404
715.795584	0.577263
716.128957	0.579777
716.462281	0.586358
716.795556	0.589750
717.128782	0.595468
717.461960	0.604844
717.795088	0.603014
718.128167	0.609277
718.461198	0.618473
718.794180	0.617919
719.127113	0.620351
719.459997	0.624708
719.792833	0.631066
720.125619	0.632320
720.458357	0.638077
720.791046	0.637711
721.123686	0.640274
721.456278	0.647771
721.788821	0.645254
722.121315	0.648954
722.453761	0.653412
722.786158	0.650649
723.118506	0.648173
723.450805	0.655480
723.783056	0.651930
724.115259	0.649349
724.447412	0.648646
724.779518	0.650465
725.111574	0.648646
725.443582	0.644194
725.775542	0.647043
726.107453	0.638622
726.439315	0.638354
726.771129	0.637197
727.102895	0.630919
727.434612	0.623047
727.766281	0.621103
728.097901	0.620976
728.429473	0.620574
728.760996	0.618804
729.092471	0.618903
729.423897	0.622397
729.755276	0.622361
730.086606	0.621391
730.417887	0.617081
730.749120	0.607116
731.080305	0.597822
731.411442	0.594845
731.742530	0.599477
732.073570	0.598545
732.404562	0.591712
732.735506	0.592018
733.066401	0.597300
733.397249	0.606157
733.728048	0.617539
734.058798	0.629604
734.389501	0.640810
734.720156	0.649841
735.050762	0.657956
735.381320	0.657956
735.711831	0.668528
736.042293	0.673369
736.372707	0.668803
736.703073	0.672973
737.033391	0.675926
737.363661	0.672489
737.693883	0.668097
738.024056	0.667173
738.354182	0.667014
738.684260	0.656608
739.014290	0.652171
739.344272	0.653506
739.674207	0.647084
740.004093	0.646978
740.333931	0.646599
740.663722	0.647346
740.993464	0.647147
741.323159	0.650896
741.652806	0.656251
741.982405	0.661378
742.311956	0.665762
742.641460	0.667097
742.970915	0.671103
743.300323	0.679439
743.629683	0.685559
743.958996	0.687804
744.288260	0.691384
744.617477	0.697581
744.946647	0.698862
745.275768	0.704050
745.604842	0.704814
745.933869	0.714302
746.262847	0.715021
746.591778	0.709014
746.920662	0.714386
747.249498	0.720924
747.578286	0.711163
747.907027	0.708302
748.235720	0.709323
748.564365	0.703686
748.892963	0.703117
749.221514	0.706534
749.550017	0.712775
749.878473	0.711206
750.206881	0.717462
750.535242	0.718701
750.863555	0.718879
751.191821	0.719457
751.520039	0.723357
751.848210	0.727880
752.176334	0.721099
752.504411	0.718969
752.832440	0.728028
753.160421	0.731634
753.488356	0.729529
753.816243	0.726939
754.144082	0.735433
754.471875	0.739501
754.799620	0.734636
755.127318	0.736015
755.454969	0.736557
755.782572	0.734940
756.110129	0.740390
756.437638	0.741346
756.765100	0.740237
757.092515	0.736903
757.419882	0.735282
757.747203	0.741575
758.074477	0.740732
758.401703	0.737587
758.728882	0.732976
759.056014	0.732330
759.383099	0.729982
759.710138	0.732793
760.037129	0.728092
760.364073	0.722680
760.690970	0.725130
761.017820	0.731225
761.344623	0.726432
761.671379	0.717454
761.998088	0.705758
762.324751	0.683938
762.651366	0.642686
762.977935	0.575456
763.304456	0.523878
763.630931	0.514632
763.957359	0.553207
764.283740	0.598252
764.610074	0.624934
764.936362	0.655253
765.262602	0.681447
765.588796	0.703042
765.914943	0.719845
766.241044	0.738934
766.567097	0.744825
766.893104	0.754572
767.219064	0.760068
767.544978	0.767976
767.870845	0.781031
768.196665	0.784950
768.522438	0.782040
768.848165	0.784567
769.173846	0.792432
769.499479	0.796561
769.825066	0.800488
770.150607	0.805169
770.476101	0.801037
770.801548	0.800915
771.126949	0.814240
771.452303	0.816971
771.777611	0.816332
772.102872	0.814301
772.428087	0.819770
772.753256	0.823925
773.078378	0.826077
773.403453	0.834986
773.728482	0.839571
774.053465	0.832677
774.378401	0.835707
774.703291	0.843973
775.028135	0.843059
775.352932	0.846286
775.677683	0.847937
776.002388	0.849949
776.327046	0.847821
776.651658	0.851524
776.976224	0.854620
777.300743	0.854982
777.625216	0.857054
777.949643	0.859183
778.274024	0.859468
778.598359	0.860631
778.922647	0.859412
779.246889	0.859136
779.571086	0.863669
779.895236	0.866878
780.219339	0.862882
780.543397	0.861192
780.867409	0.858319
781.191374	0.860305
781.515294	0.862516
781.839167	0.860962
782.162995	0.863883
782.486776	0.861458
782.810511	0.862909
783.134201	0.866923
783.457844	0.863875
783.781441	0.866581
784.104993	0.872879
784.428498	0.873276
784.751958	0.868375
785.075372	0.871127
785.398739	0.874836
785.722061	0.871079
786.045337	0.866251
786.368568	0.871276
786.691752	0.874244
787.014891	0.858881
787.337983	0.851134
787.661030	0.844110
787.984031	0.825841
788.306987	0.813036
788.629897	0.815521
788.952760	0.819405
789.275579	0.824216
789.598351	0.839643
789.921078	0.851695
790.243759	0.853953
790.566395	0.858587
790.888984	0.866573
791.211529	0.870601
791.534027	0.874614
791.856480	0.877214
792.178888	0.881297
792.501249	0.883709
792.823566	0.884993
793.145836	0.884888
793.468062	0.886981
793.790241	0.887397
794.112375	0.885199
794.434464	0.880153
794.756507	0.879734
795.078505	0.879830
795.400457	0.875784
795.722364	0.862970
796.044226	0.855745
796.366042	0.855580
796.687812	0.857778
797.009538	0.853930
797.331218	0.857242
797.652852	0.862288
797.974442	0.866855
798.295986	0.866124
798.617484	0.869401
798.938938	0.873422
799.260346	0.878067
799.581709	0.880238
799.903026	0.882403
800.224299	0.883163
800.545526	0.886708
800.866708	0.889722
801.187845	0.894513
801.508936	0.894424
801.829983	0.892212
802.150984	0.894485
802.471940	0.899996
802.792851	0.898578
803.113717	0.900271
803.434538	0.897662
803.755314	0.900790
804.076045	0.902177
804.396731	0.902889
804.717372	0.902411
805.037967	0.904046
805.358518	0.901796
805.679024	0.897859
805.999485	0.898788
806.319901	0.900058
806.640272	0.899944
806.960598	0.899725
807.280879	0.897074
807.601115	0.894631
807.921306	0.898395
808.241453	0.898061
808.561554	0.896219
808.881611	0.896393
809.201623	0.897417
809.521590	0.899064
809.841513	0.899495
810.161390	0.898518
810.481223	0.899847
810.801011	0.902947
811.120755	0.905716
811.440453	0.904303
811.760107	0.902866
812.079716	0.902742
812.399281	0.906274
812.718801	0.908567
813.038276	0.908437
813.357707	0.908830
813.677093	0.905708
813.996434	0.909820
814.315731	0.910124
814.634983	0.911822
814.954191	0.909793
815.273354	0.907065
815.592473	0.903418
815.911547	0.903940
816.230577	0.901252
816.549562	0.898931
816.868502	0.899409
817.187399	0.895531
817.506250	0.890627
817.825058	0.893052
818.143821	0.889775
818.462539	0.883532
818.781213	0.875941
819.099843	0.864488
819.418429	0.850204
819.736970	0.832630
820.055466	0.813502
820.373919	0.789406
820.692327	0.756359
821.010691	0.721781
821.329011	0.646861
821.647286	0.533861
821.965517	0.421182
822.283704	0.379044
822.601847	0.381099
822.919945	0.416157
823.237999	0.449034
823.556010	0.494814
823.873976	0.550142
824.191897	0.599828
824.509775	0.642190
824.827609	0.686419
825.145398	0.708579
825.463144	0.710700
825.780845	0.693518
826.098502	0.675672
826.416116	0.630677
826.733685	0.587712
827.051210	0.579260
827.368692	0.593343
827.686129	0.630030
828.003522	0.683218
828.320872	0.728906
828.638177	0.772293
828.955439	0.804385
829.272656	0.826204
829.589830	0.842368
829.906960	0.857946
830.224046	0.869737
830.541088	0.880271
830.858086	0.884409
831.175041	0.890660
831.491952	0.888985
831.808819	0.886968
832.125642	0.879253
832.442421	0.865494
832.759157	0.843974
833.075849	0.799360
833.392497	0.735985
833.709101	0.695651
834.025662	0.705976
834.342179	0.736743
834.658653	0.775523
834.975083	0.810529
835.291469	0.836336
835.607811	0.858669
835.924110	0.873431
836.240366	0.890282
836.556578	0.903403
836.872746	0.911948
837.188871	0.916723
837.504952	0.921633
837.820990	0.925459
838.136984	0.929777
838.452935	0.932663
838.768842	0.934541
839.084706	0.927278
839.400526	0.902186
839.716303	0.861749
840.032037	0.841021
840.347727	0.843405
840.663373	0.861882
840.978977	0.882719
841.294537	0.906310
841.610054	0.921751
841.925527	0.927858
842.240957	0.934836
842.556344	0.942743
842.871687	0.947865
843.186987	0.952377
843.502244	0.951490
843.817458	0.954331
844.132629	0.957363
844.447756	0.962310
844.762840	0.963011
845.077881	0.961439
845.392879	0.961001
845.707833	0.964300
846.022745	0.965920
846.337613	0.965991
846.652438	0.968204
846.967221	0.965379
847.281960	0.966710
847.596656	0.969028
847.911309	0.968381
848.225919	0.969743
848.540485	0.969756
848.855009	0.970414
849.169490	0.969942
849.483928	0.970643
849.798323	0.970730
850.112675	0.971749
850.426984	0.970899
850.741251	0.971399
851.055474	0.970758
851.369654	0.969317
851.683792	0.970304
851.997887	0.971562
852.311938	0.971373
852.625947	0.970808
852.939914	0.969165
853.253837	0.971522
853.567718	0.973015
853.881555	0.973120
854.195350	0.970276
854.509103	0.970169
854.822812	0.970732
855.136479	0.971186
855.450103	0.971328
855.763685	0.970500
856.077224	0.970098
856.390720	0.971271
856.704173	0.972206
857.017584	0.969903
857.330953	0.968386
857.644278	0.969850
857.957561	0.970400
858.270802	0.970515
858.584000	0.968642
858.897155	0.967331
859.210268	0.969044
859.523339	0.969732
859.836367	0.971146
860.149352	0.972426
860.462295	0.970500
860.775195	0.972371
861.088054	0.970211
861.400869	0.971366
861.713642	0.971788
862.026373	0.972707
862.339062	0.972331
862.651708	0.969430
862.964312	0.969585
863.276873	0.970587
863.589392	0.969851
863.901869	0.968767
864.214303	0.966221
864.526696	0.965945
864.839045	0.965608
865.151353	0.962840
865.463619	0.964426
865.775842	0.964100
866.088023	0.964359
866.400162	0.964231
866.712258	0.964020
867.024313	0.965017
867.336325	0.964729
867.648296	0.965080
867.960224	0.964547
868.272110	0.963941
868.583954	0.965115
868.895755	0.966197
869.207515	0.963134
869.519233	0.960978
869.830909	0.962900
870.142542	0.964814
870.454134	0.964103
870.765684	0.962281
871.077191	0.959006
871.388657	0.962190
871.700081	0.960548
872.011463	0.960989
872.322803	0.960152
872.634101	0.958607
872.945357	0.956577
873.256571	0.955603
873.567744	0.954602
873.878874	0.955280
874.189963	0.953893
874.501010	0.954219
874.812015	0.952191
875.122979	0.953420
875.433900	0.956301
875.744780	0.956135
876.055618	0.952629
876.366415	0.951191
876.677169	0.951192
876.987882	0.954077
877.298554	0.952811
877.609183	0.949628
877.919771	0.947856
878.230317	0.945652
878.540822	0.943643
878.851285	0.937657
879.161707	0.931322
879.472087	0.918799
879.782425	0.904613
880.092722	0.870573
880.402977	0.820187
880.713191	0.761684
881.023363	0.704968
881.333494	0.672507
881.643583	0.645171
881.953631	0.643715
882.263637	0.672732
882.573602	0.710908
882.883526	0.736093
883.193408	0.758163
883.503248	0.780261
883.813048	0.806643
884.122806	0.835227
884.432522	0.857188
884.742197	0.876771
885.051831	0.887550
885.361424	0.897835
885.670975	0.908328
885.980485	0.917542
886.289954	0.923516
886.599382	0.928577
886.908768	0.931982
887.218113	0.937818
887.527417	0.942417
887.836680	0.945674
888.145901	0.946817
888.455082	0.949176
888.764221	0.953230
889.073319	0.954494
889.382376	0.955566
889.691392	0.955601
890.000366	0.954969
890.309300	0.955817
890.618193	0.956907
890.927044	0.954169
891.235855	0.952902
891.544625	0.953328
891.853353	0.954167
892.162041	0.952682
892.470687	0.945057
892.779293	0.940912
893.087858	0.937342
893.396381	0.929617
893.704864	0.917586
894.013306	0.894113
894.321707	0.868789
894.630068	0.855208
894.938387	0.851068
895.246665	0.851792
895.554903	0.863396
895.863100	0.875725
896.171256	0.893009
896.479371	0.911946
896.787446	0.924125
897.095480	0.928914
897.403473	0.931731
897.711425	0.935986
898.019336	0.944633
898.327207	0.945285
898.635038	0.948299
898.942827	0.947865
899.250576	0.951502
899.558284	0.954801
899.865952	0.956607
900.173579	0.959004
900.481165	0.958336
900.788711	0.962250
901.096216	0.963231
901.403681	0.962974
901.711105	0.964779
902.018489	0.965389
902.325832	0.964767
902.633135	0.964302
902.940397	0.958915
903.247619	0.946361
903.554800	0.922081
903.861941	0.884864
904.169041	0.851822
904.476101	0.836032
904.783121	0.836718
905.090100	0.852424
905.397039	0.872100
905.703938	0.892662
906.010796	0.911359
906.317614	0.927685
906.624391	0.938711
906.931129	0.946989
907.237826	0.954483
907.544483	0.961714
907.851099	0.964446
908.157675	0.970782
908.464211	0.972676
908.770707	0.974322
909.077163	0.976146
909.383578	0.975604
909.689954	0.977618
909.996289	0.976710
910.302584	0.979414
910.608839	0.980891
910.915054	0.981524
911.221229	0.979738
911.527363	0.979713
911.833458	0.978831
912.139513	0.979219
912.445527	0.976979
912.751502	0.976608
913.057436	0.974867
913.363331	0.971416
913.669186	0.968940
913.975000	0.964097
914.280775	0.957908
914.586510	0.952135
914.892205	0.940143
915.197859	0.920330
915.503475	0.893869
915.809050	0.875565
916.114585	0.870276
916.420081	0.868043
916.725536	0.865388
917.030952	0.872595
917.336328	0.885107
917.641665	0.898690
917.946961	0.914182
918.252218	0.924582
918.557435	0.932529
918.862612	0.941743
919.167750	0.945509
919.472848	0.950099
919.777906	0.956180
920.082925	0.961905
920.387904	0.964521
920.692843	0.965528
920.997743	0.967088
921.302603	0.969412
921.607423	0.972189
921.912204	0.973391
922.216946	0.973903
922.521647	0.975690
922.826310	0.976181
923.130932	0.979458
923.435516	0.979806
923.740059	0.982863
924.044564	0.980642
924.349028	0.982029
924.653454	0.984728
924.957840	0.986396
925.262186	0.984897
925.566493	0.985980
925.870761	0.985866
926.174989	0.987958
926.479178	0.990237
926.783328	0.989321
927.087438	0.989603
927.391509	0.989859
927.695541	0.991419
927.999533	0.990080
928.303486	0.991004
928.607400	0.992168
928.911275	0.990442
929.215110	0.991455
929.518906	0.990959
929.822663	0.991836
930.126381	0.992492
930.430060	0.991636
930.733699	0.991367
931.037299	0.990551
931.340861	0.990496
931.644383	0.990730
931.947866	0.990853
932.251309	0.992408
932.554714	0.992106
932.858080	0.991225
933.161407	0.991168
933.464694	0.991397
933.767943	0.990524
934.071153	0.991243
934.374323	0.992394
934.677455	0.991906
934.980548	0.993003
935.283602	0.992157
935.586617	0.992001
935.889593	0.991037
936.192530	0.991000
936.495428	0.991955
936.798287	0.992071
937.101108	0.991496
937.403890	0.989159
937.706632	0.990426
938.009336	0.988551
938.312002	0.987702
938.614628	0.986438
938.917216	0.984433
939.219765	0.983624
939.522275	0.984532
939.824747	0.983896
940.127179	0.984406
940.429573	0.986196
940.731929	0.984409
941.034246	0.985777
941.336524	0.987003
941.638763	0.987688
941.940964	0.988832
942.243126	0.987709
942.545250	0.989046
942.847335	0.989474
943.149381	0.989485
943.451389	0.989248
943.753359	0.989457
944.055290	0.990838
944.357182	0.990076
944.659036	0.989815
944.960851	0.991400
945.262628	0.991094
945.564367	0.990847
945.866067	0.990438
946.167729	0.990609
946.469352	0.990030
946.770937	0.989867
947.072484	0.991370
947.373992	0.991501
947.675462	0.990338
947.976893	0.991101
948.278286	0.991174
948.579641	0.993655
948.880958	0.991765
949.182236	0.992064
949.483476	0.993003
949.784678	0.991345
950.085841	0.993268
950.386967	0.992406
950.688054	0.991466
950.989103	0.992315
951.290114	0.989473
951.591087	0.990695
951.892021	0.991233
952.192917	0.991192
952.493776	0.990164
952.794596	0.990060
953.095378	0.989078
953.396122	0.990331
953.696828	0.989471
953.997496	0.991473
954.298126	0.992900
954.598718	0.991520
954.899272	0.991720
955.199788	0.991829
955.500266	0.991643
955.800706	0.994150
956.101108	0.993881
956.401472	0.994676
956.701798	0.995073
957.002087	0.994232
957.302337	0.994703
957.602550	0.996327
957.902724	0.995413
958.202861	0.996046
958.502960	0.995730
958.803022	0.995846
959.103045	0.996879
959.403031	0.996774
959.702979	0.995284
960.002889	0.995586
960.302762	0.994781
960.602596	0.996762
960.902393	0.995066
961.202153	0.997992
961.501875	0.996632
961.801559	0.996386
962.101205	0.996201
962.400814	0.996490
962.700385	0.996652
962.999918	0.996313
963.299414	0.996516
963.598873	0.996649
963.898293	0.995944
964.197677	0.995705
964.497022	0.996497
964.796331	0.998479
965.095601	0.997186
965.394835	0.996592
965.694030	0.997040
965.993189	0.997271
966.292309	0.996580
966.591393	0.997865
966.890439	0.998130
967.189447	0.997619
967.488419	0.997695
967.787353	0.996840
968.086249	0.997524
968.385108	0.997279
968.683930	0.997511
968.982714	0.997190
969.281462	0.997538
969.580172	0.996845
969.878844	0.997067
970.177480	0.997575
970.476078	0.998560
970.774639	0.997374
971.073162	0.997483
971.371649	0.997554
971.670098	0.996852
971.968510	0.998440
972.266885	0.997035
972.565223	0.997270
972.863524	0.997244
973.161788	0.996224
973.460014	0.999396
973.758204	0.996378
974.056356	0.996224
974.354471	0.995258
974.652550	0.996053
974.950591	0.997580
975.248595	0.997273
975.546563	0.997205
975.844493	0.998270
976.142386	0.996710
976.440243	0.998378
976.738062	0.997105
977.035845	0.998928
977.333590	0.997513
977.631299	0.997739
977.928971	0.997699
978.226606	0.997624
978.524204	0.996628
978.821765	0.998269
979.119290	0.996562
979.416777	0.997471
979.714228	0.997258
980.011642	0.995767
980.309020	0.998524
980.606360	0.997213
980.903664	0.997806
981.200931	0.997387
981.498162	0.995599
981.795356	0.995111
982.092513	0.995176
982.389633	0.995375
982.686717	0.992194
982.983764	0.993076
983.280775	0.991451
983.577749	0.990727
983.874686	0.993170
984.171587	0.992095
984.468451	0.995832
984.765279	0.995568
985.062070	0.994448
985.358824	0.995741
985.655543	0.996008
985.952224	0.996783
986.248869	0.996294
986.545478	0.998011
986.842050	0.998983
987.138586	0.995843
987.435086	0.997050
987.731549	0.999741
988.027975	0.998502
988.324366	0.998864
988.620719	0.998329
988.917037	0.997941
989.213318	0.997349
989.509563	0.999072
989.805772	0.998210
990.101944	0.999467
990.398080	0.998538
990.694180	0.998795
990.990244	0.997446
991.286271	0.999168
991.582262	0.998829
991.878217	0.998815
992.174136	0.999014
992.470019	0.999499
992.765865	0.998170
993.061676	0.999803
993.357450	0.998865
993.653188	0.997713
993.948890	0.998260
994.244556	0.999022
994.540186	0.997068
994.835780	0.996422
995.131337	0.998723
995.426859	0.997138
995.722345	0.998035
996.017795	0.996080
996.313208	0.996670
996.608586	0.997053
996.903928	0.996799
997.199234	0.996881
997.494504	0.997170
997.789738	0.995752
998.084936	0.996790
998.380099	0.998147
998.675225	0.998053
998.970316	0.998187
999.265371	0.998797
999.560390	0.999024
999.855373	0.998899
1000.150320	0.998177
1000.445232	0.998880
1000.740108	0.998682
1001.034948	0.998099
1001.329752	0.999428
1001.624521	0.999220
1001.919254	0.998537
1002.213951	0.997746
1002.508613	0.999426
1002.803239	0.998735
1003.097829	0.999445
1003.392384	0.999715
1003.686903	0.998732
1003.981386	0.998847
1004.275834	0.999695
1004.570246	0.999527
1004.864623	0.999130
1005.158964	0.998310
1005.453270	0.999044
1005.747540	0.997823
1006.041775	0.998948
1006.335974	0.999132
1006.630138	0.999674
1006.924266	1.000609
1007.218359	1.000366
1007.512416	0.999920
1007.806438	0.999415
1008.100425	1.000169
1008.394376	0.999375
1008.688292	0.999080
1008.982172	1.000648
1009.276017	1.000229
1009.569827	0.999016
1009.863602	0.999705
1010.157341	0.999821
1010.451045	0.999290
1010.744714	0.998467
1011.038347	1.000000
1011.331945	0.998922
1011.625508	0.998050
1011.919036	0.998898
1012.212528	0.999414
1012.505986	0.998214
1012.799408	0.998939
1013.092795	1.000347
1013.386147	1.000488
1013.679464	0.999100
1013.972745	0.998054
1014.265992	0.997656
1014.559204	0.998758
1014.852380	1.000286
1015.145521	0.999950
1015.438628	0.999144
1015.731699	0.998333
1016.024736	0.998897
1016.317737	0.999116
1016.610703	0.999236
1016.903635	0.999394
1017.196531	0.997846
1017.489393	1.000474
1017.782219	0.998567
1018.075011	0.998687
1018.367768	0.999055
1018.660490	0.999907
1018.953177	0.999907
1019.245829	0.999907
