Dividing Wavelength (nm)	Counts (n)	Blue Motor Position (mm): 0.000000	Red Motor Position (mm): 26.900000	
326.493990	1.000995
326.888308	1.000995
327.282561	1.000995
327.676750	0.999133
328.070874	1.000727
328.464933	1.000584
328.858929	0.999243
329.252859	0.999709
329.646726	0.998575
330.040528	0.998292
330.434265	0.999564
330.827938	1.000472
331.221547	1.000082
331.615091	0.999208
332.008571	0.999803
332.401986	1.000350
332.795338	0.999647
333.188625	0.998317
333.581847	1.000283
333.975006	1.000357
334.368100	0.998749
334.761129	0.999805
335.154095	1.001343
335.546996	0.997766
335.939833	0.993885
336.332606	0.994475
336.725315	0.995823
337.117960	0.996173
337.510540	0.994077
337.903056	0.995428
338.295508	0.993812
338.687896	0.995446
339.080220	0.994315
339.472480	0.995546
339.864676	0.994704
340.256807	0.995143
340.648875	0.995100
341.040879	0.995656
341.432818	0.994663
341.824694	0.994352
342.216506	0.994964
342.608253	0.993965
342.999937	0.993359
343.391557	0.994225
343.783113	0.994749
344.174605	0.994514
344.566033	0.995814
344.957397	0.993675
345.348697	0.994682
345.739934	0.995050
346.131106	0.993979
346.522215	0.994563
346.913260	0.994273
347.304241	0.994086
347.695159	0.994233
348.086012	0.994019
348.476802	0.995235
348.867528	0.994358
349.258191	0.993800
349.648789	0.995179
350.039324	0.994905
350.429796	0.995113
350.820203	0.994536
351.210548	0.994058
351.600828	0.995800
351.991045	0.995342
352.381198	0.994425
352.771288	0.995451
353.161314	0.994054
353.551276	0.994727
353.941175	0.995688
354.331010	0.994221
354.720782	0.995479
355.110490	0.994897
355.500135	0.995294
355.889717	0.995418
356.279235	0.994417
356.668689	0.994645
357.058080	0.994623
357.447408	0.995546
357.836672	0.995160
358.225873	0.994618
358.615010	0.994440
359.004084	0.996267
359.393095	0.995157
359.782043	0.994594
360.170927	0.995962
360.559748	0.995006
360.948505	0.994180
361.337199	0.993931
361.725830	0.994762
362.114398	0.994075
362.502903	0.995595
362.891344	0.995904
363.279722	0.995385
363.668037	0.995641
364.056289	0.994138
364.444478	0.994908
364.832603	0.995612
365.220665	0.995074
365.608665	0.995033
365.996601	0.994830
366.384474	0.994476
366.772284	0.994563
367.160031	0.994028
367.547715	0.993685
367.935336	0.995251
368.322893	0.994583
368.710388	0.994193
369.097820	0.994175
369.485189	0.995391
369.872495	0.994111
370.259738	0.993010
370.646918	0.995068
371.034035	0.996552
371.421090	0.994677
371.808081	0.994517
372.195010	0.995437
372.581875	0.994306
372.968678	0.995658
373.355418	0.994780
373.742096	0.994829
374.128710	0.996042
374.515262	0.994703
374.901751	0.994947
375.288177	0.994899
375.674540	0.995662
376.060841	0.994176
376.447079	0.996249
376.833254	0.994747
377.219367	0.996115
377.605417	0.996065
377.991404	0.995683
378.377329	0.994993
378.763191	0.995747
379.148991	0.995432
379.534727	0.995388
379.920402	0.995504
380.306013	0.995872
380.691563	0.997007
381.077049	0.995018
381.462474	0.995865
381.847835	0.995781
382.233134	0.995424
382.618371	0.995857
383.003545	0.995585
383.388657	0.995585
383.773706	0.996760
384.158693	0.996647
384.543618	0.995975
384.928480	0.996886
385.313280	0.995680
385.698017	0.996515
386.082692	0.997961
386.467305	0.997460
386.851856	0.996371
387.236344	0.996171
387.620770	0.995126
388.005133	0.996302
388.389435	0.996644
388.773674	0.996763
389.157851	0.997373
389.541965	0.996635
389.926018	0.996071
390.310008	0.997758
390.693936	0.995975
391.077802	0.997244
391.461606	0.996854
391.845348	0.997531
392.229027	0.997799
392.612645	0.997270
392.996200	0.998065
393.379694	0.996683
393.763125	0.997232
394.146494	0.997549
394.529801	0.996574
394.913047	0.997778
395.296230	0.997189
395.679351	0.996174
396.062410	0.997048
396.445408	0.997512
396.828343	0.996912
397.211217	0.996302
397.594028	0.997849
397.976778	0.997726
398.359466	0.997057
398.742092	0.997449
399.124656	0.996578
399.507158	0.996873
399.889598	0.998014
400.271977	0.997878
400.654294	0.998014
401.036549	0.997870
401.418742	0.997719
401.800874	0.996535
402.182944	0.997387
402.564952	0.996567
402.946898	0.997812
403.328783	0.998055
403.710606	0.997284
404.092367	0.998198
404.474067	0.996980
404.855705	0.997131
405.237282	0.997727
405.618797	0.997295
406.000250	0.997172
406.381642	0.998167
406.762972	0.997263
407.144240	0.998557
407.525447	0.997170
407.906593	0.997586
408.287677	0.998192
408.668700	0.998059
409.049661	0.995950
409.430560	0.997221
409.811399	0.996440
410.192176	0.996943
410.572891	0.996086
410.953545	0.997368
411.334138	0.996230
411.714669	0.997455
412.095139	0.996854
412.475547	0.997719
412.855894	0.997113
413.236180	0.998583
413.616405	0.997878
413.996568	0.999353
414.376670	0.997005
414.756711	0.996372
415.136691	0.997122
415.516609	0.996852
415.896466	0.996748
416.276262	0.996848
416.655997	0.997901
417.035670	0.997180
417.415283	0.997657
417.794834	0.997270
418.174324	0.997328
418.553753	0.997768
418.933121	0.998024
419.312428	0.997242
419.691674	0.997212
420.070859	0.998267
420.449983	0.997405
420.829045	0.997813
421.208047	0.998217
421.586988	0.997913
421.965867	0.997393
422.344686	0.998194
422.723444	0.998248
423.102141	0.997373
423.480777	0.997700
423.859352	0.997902
424.237866	0.997124
424.616319	0.997817
424.994712	0.998144
425.373044	0.997508
425.751314	0.998120
426.129524	0.997813
426.507673	0.998001
426.885762	0.998786
427.263789	0.997772
427.641756	0.997676
428.019662	0.998421
428.397508	0.997649
428.775292	0.996121
429.153016	0.997092
429.530679	0.998428
429.908282	0.997914
430.285824	0.997417
430.663305	0.997479
431.040726	0.996959
431.418086	0.998167
431.795385	0.997856
432.172624	0.996826
432.549802	0.998912
432.926920	0.997321
433.303977	0.996741
433.680974	0.997789
434.057910	0.996886
434.434786	0.997299
434.811601	0.997362
435.188355	0.996375
435.565050	0.996935
435.941683	0.996485
436.318257	0.997900
436.694770	0.996411
437.071222	0.997546
437.447614	0.997437
437.823946	0.997239
438.200218	0.997283
438.576429	0.996686
438.952580	0.997371
439.328670	0.996282
439.704700	0.996822
440.080670	0.996440
440.456580	0.996155
440.832429	0.994802
441.208218	0.996254
441.583947	0.995817
441.959616	0.995674
442.335224	0.995880
442.710773	0.995777
443.086261	0.994225
443.461689	0.993007
443.837057	0.992746
444.212365	0.993046
444.587612	0.992400
444.962800	0.991376
445.337927	0.991412
445.712995	0.990689
446.088002	0.990566
446.462949	0.989406
446.837837	0.988155
447.212664	0.987232
447.587431	0.986386
447.962139	0.983830
448.336786	0.981447
448.711374	0.980497
449.085901	0.979891
449.460369	0.979541
449.834776	0.978125
450.209124	0.975143
450.583412	0.971762
450.957640	0.971007
451.331808	0.969075
451.705917	0.967685
452.079965	0.965426
452.453954	0.963374
452.827883	0.960486
453.201752	0.959444
453.575562	0.956899
453.949311	0.953328
454.323001	0.950544
454.696632	0.947051
455.070202	0.943626
455.443713	0.939830
455.817164	0.936113
456.190556	0.931610
456.563888	0.927563
456.937160	0.923478
457.310373	0.922205
457.683526	0.917973
458.056619	0.914430
458.429653	0.909815
458.802628	0.905230
459.175542	0.900166
459.548398	0.892116
459.921194	0.885664
460.293930	0.880028
460.666607	0.867226
461.039224	0.858001
461.411782	0.852787
461.784280	0.847046
462.156719	0.843269
462.529099	0.838857
462.901419	0.836450
463.273680	0.831643
463.645882	0.825867
464.018024	0.819958
464.390106	0.810021
464.762130	0.799518
465.134094	0.785553
465.505999	0.766258
465.877845	0.748323
466.249631	0.738274
466.621358	0.733887
466.993026	0.730158
467.364634	0.725785
467.736184	0.720661
468.107674	0.715518
468.479105	0.704943
468.850477	0.702157
469.221790	0.695609
469.593043	0.691759
469.964238	0.684760
470.335373	0.675408
470.706449	0.667104
471.077467	0.660201
471.448425	0.632577
471.819324	0.611892
472.190164	0.604944
472.560945	0.611750
472.931667	0.613727
473.302330	0.607602
473.672934	0.606402
474.043479	0.591523
474.413965	0.584605
474.784393	0.577973
475.154761	0.567783
475.525070	0.557486
475.895321	0.554452
476.265513	0.542823
476.635645	0.532484
477.005719	0.524394
477.375734	0.514945
477.745691	0.503373
478.115588	0.492998
478.485427	0.481594
478.855207	0.466195
479.224928	0.447352
479.594591	0.432986
479.964194	0.427314
480.333739	0.420411
480.703226	0.412749
481.072653	0.405176
481.442022	0.395991
481.811333	0.387403
482.180584	0.383813
482.549777	0.380214
482.918912	0.377450
483.287988	0.371511
483.657005	0.365265
484.025964	0.364864
484.394864	0.356411
484.763706	0.351287
485.132489	0.350449
485.501213	0.345562
485.869879	0.339529
486.238487	0.337337
486.607036	0.331394
486.975527	0.330386
487.343959	0.322544
487.712333	0.317146
488.080648	0.314851
488.448905	0.309987
488.817104	0.307517
489.185244	0.298836
489.553326	0.292431
489.921350	0.280231
490.289315	0.261316
490.657222	0.254099
491.025070	0.252154
491.392861	0.250663
491.760593	0.252818
492.128267	0.254867
492.495883	0.257447
492.863440	0.260856
493.230939	0.264430
493.598380	0.263321
493.965763	0.263595
494.333088	0.264234
494.700354	0.263300
495.067563	0.260668
495.434713	0.262345
495.801805	0.258739
496.168839	0.258855
496.535815	0.258677
496.902733	0.257526
497.269593	0.257928
497.636395	0.254460
498.003139	0.253930
498.369825	0.255771
498.736453	0.251430
499.103023	0.252005
499.469535	0.250658
499.835989	0.250281
500.202385	0.250261
500.568723	0.252841
500.935003	0.247776
501.301226	0.251424
501.667390	0.245457
502.033497	0.243012
502.399546	0.245598
502.765537	0.246814
503.131470	0.244790
503.497345	0.240782
503.863163	0.249152
504.228923	0.241858
504.594625	0.240212
504.960269	0.245580
505.325856	0.240765
505.691385	0.244552
506.056856	0.241236
506.422270	0.240319
506.787625	0.242665
507.152924	0.239916
507.518164	0.240126
507.883347	0.241604
508.248472	0.243281
508.613540	0.238168
508.978550	0.240592
509.343503	0.240937
509.708398	0.238464
510.073236	0.235958
510.438016	0.235830
510.802738	0.236593
511.167403	0.235505
511.532010	0.237312
511.896561	0.232585
512.261053	0.231470
512.625488	0.233418
512.989866	0.233850
513.354186	0.233914
513.718449	0.235655
514.082655	0.231654
514.446803	0.234227
514.810894	0.231631
515.174927	0.234399
515.538904	0.233779
515.902822	0.230499
516.266684	0.232931
516.630488	0.234067
516.994235	0.232773
517.357925	0.231601
517.721558	0.229698
518.085133	0.229175
518.448651	0.229211
518.812112	0.231650
519.175516	0.230795
519.538863	0.228711
519.902152	0.230401
520.265385	0.227039
520.628560	0.228921
520.991678	0.229383
521.354739	0.227987
521.717743	0.229225
522.080690	0.229991
522.443580	0.227238
522.806413	0.227772
523.169189	0.227144
523.531908	0.226049
523.894569	0.229631
524.257174	0.229751
524.619722	0.227306
524.982213	0.228489
525.344647	0.227473
525.707025	0.228077
526.069345	0.226316
526.431608	0.227886
526.793815	0.225839
527.155964	0.229990
527.518057	0.228823
527.880093	0.229890
528.242072	0.228692
528.603995	0.230523
528.965860	0.232010
529.327669	0.230949
529.689421	0.231802
530.051117	0.232811
530.412755	0.230230
530.774337	0.232832
531.135862	0.233244
531.497331	0.232440
531.858743	0.235256
532.220098	0.231756
532.581396	0.234485
532.942638	0.234969
533.303824	0.235804
533.664953	0.235788
534.026025	0.237346
534.387040	0.235380
534.747999	0.235191
535.108902	0.234195
535.469748	0.238997
535.830537	0.236984
536.191270	0.237302
536.551947	0.236737
536.912567	0.236976
537.273131	0.238576
537.633638	0.238596
537.994089	0.239123
538.354483	0.240213
538.714821	0.237429
539.075103	0.236953
539.435328	0.237803
539.795497	0.241482
540.155609	0.238086
540.515665	0.236293
540.875665	0.241963
541.235609	0.240479
541.595496	0.240624
541.955328	0.237149
542.315102	0.239404
542.674821	0.240723
543.034483	0.240504
543.394090	0.240390
543.753640	0.242416
544.113134	0.237397
544.472571	0.240568
544.831953	0.237630
545.191278	0.241712
545.550548	0.241195
545.909761	0.237918
546.268918	0.238843
546.628019	0.236864
546.987064	0.239516
547.346053	0.241604
547.704986	0.239270
548.063863	0.239915
548.422684	0.239862
548.781449	0.241751
549.140158	0.239515
549.498811	0.242242
549.857408	0.245257
550.215949	0.240050
550.574434	0.243197
550.932864	0.240866
551.291237	0.239811
551.649555	0.241169
552.007817	0.240864
552.366022	0.241747
552.724173	0.241803
553.082267	0.242450
553.440305	0.239136
553.798288	0.243677
554.156215	0.240026
554.514086	0.240940
554.871902	0.243962
555.229661	0.243113
555.587365	0.243550
555.945014	0.246371
556.302606	0.242969
556.660143	0.245796
557.017625	0.242252
557.375050	0.244420
557.732421	0.241657
558.089735	0.243679
558.446994	0.243619
558.804197	0.242419
559.161345	0.242667
559.518437	0.246462
559.875474	0.244019
560.232455	0.243216
560.589381	0.244734
560.946251	0.244490
561.303065	0.242219
561.659825	0.243861
562.016528	0.244858
562.373177	0.247729
562.729770	0.245355
563.086307	0.247354
563.442789	0.245200
563.799216	0.247837
564.155587	0.246828
564.511904	0.247680
564.868164	0.247701
565.224370	0.247594
565.580520	0.249371
565.936615	0.249615
566.292654	0.252391
566.648638	0.249312
567.004567	0.250331
567.360441	0.250869
567.716260	0.252953
568.072023	0.250534
568.427732	0.251341
568.783385	0.253883
569.138982	0.251947
569.494525	0.251741
569.850013	0.254609
570.205445	0.252862
570.560823	0.255444
570.916145	0.257265
571.271412	0.255410
571.626625	0.257257
571.981782	0.257624
572.336884	0.258538
572.691931	0.258261
573.046923	0.259684
573.401860	0.260270
573.756743	0.262108
574.111570	0.261130
574.466342	0.261934
574.821059	0.260809
575.175722	0.263456
575.530330	0.263588
575.884882	0.263715
576.239380	0.265459
576.593823	0.266665
576.948211	0.265753
577.302544	0.268781
577.656823	0.268649
578.011047	0.268814
578.365216	0.268892
578.719330	0.271229
579.073389	0.270922
579.427394	0.272432
579.781344	0.273255
580.135239	0.274807
580.489080	0.274060
580.842866	0.277214
581.196597	0.277260
581.550273	0.275906
581.903895	0.276634
582.257463	0.274879
582.610975	0.278362
582.964434	0.277584
583.317837	0.280084
583.671186	0.280649
584.024481	0.280410
584.377721	0.283014
584.730906	0.283863
585.084037	0.282802
585.437113	0.284458
585.790135	0.284124
586.143103	0.287047
586.496016	0.288288
586.848874	0.285943
587.201679	0.286355
587.554428	0.289564
587.907124	0.288425
588.259765	0.289208
588.612352	0.289574
588.964884	0.293512
589.317362	0.292893
589.669786	0.292881
590.022155	0.291600
590.374470	0.290626
590.726731	0.293155
591.078937	0.297941
591.431090	0.294078
591.783188	0.298364
592.135232	0.298617
592.487222	0.298775
592.839157	0.296832
593.191038	0.298812
593.542866	0.301104
593.894639	0.304699
594.246358	0.302673
594.598022	0.301948
594.949633	0.305354
595.301190	0.306459
595.652692	0.305776
596.004141	0.301733
596.355535	0.309820
596.706876	0.310140
597.058162	0.312725
597.409395	0.309871
597.760573	0.307457
598.111698	0.310698
598.462768	0.311346
598.813785	0.312717
599.164748	0.313885
599.515657	0.313969
599.866511	0.317520
600.217312	0.312919
600.568060	0.318467
600.918753	0.314464
601.269392	0.315677
601.619978	0.319021
601.970510	0.316540
602.320988	0.316199
602.671412	0.314397
603.021783	0.316463
603.372100	0.318191
603.722363	0.317782
604.072572	0.319071
604.422728	0.318541
604.772830	0.320718
605.122878	0.320135
605.472872	0.320636
605.822813	0.319071
606.172701	0.321785
606.522534	0.318877
606.872314	0.318897
607.222041	0.319825
607.571714	0.317799
607.921333	0.319359
608.270899	0.319423
608.620411	0.316211
608.969870	0.319926
609.319276	0.320048
609.668627	0.319694
610.017926	0.318664
610.367171	0.317226
610.716362	0.317867
611.065500	0.317746
611.414585	0.316595
611.763616	0.317444
612.112594	0.317744
612.461518	0.317253
612.810389	0.314983
613.159207	0.316935
613.507971	0.318468
613.856682	0.314553
614.205340	0.316559
614.553945	0.312837
614.902496	0.317172
615.250994	0.315047
615.599439	0.315740
615.947830	0.315504
616.296169	0.315801
616.644454	0.315481
616.992686	0.315497
617.340864	0.313637
617.688990	0.317457
618.037063	0.313925
618.385082	0.315627
618.733048	0.312409
619.080961	0.315182
619.428821	0.314054
619.776628	0.313566
620.124382	0.316122
620.472083	0.316408
620.819731	0.315765
621.167326	0.319154
621.514868	0.318947
621.862357	0.323442
622.209793	0.322771
622.557176	0.325071
622.904506	0.326256
623.251783	0.328747
623.599007	0.330970
623.946179	0.330572
624.293297	0.332391
624.640363	0.335920
624.987376	0.336729
625.334336	0.339181
625.681243	0.341398
626.028097	0.341906
626.374899	0.343248
626.721647	0.343537
627.068343	0.346409
627.414987	0.347520
627.761577	0.349685
628.108115	0.348139
628.454600	0.353430
628.801032	0.350271
629.147412	0.352693
629.493739	0.353066
629.840014	0.356185
630.186236	0.353534
630.532405	0.359057
630.878521	0.356465
631.224585	0.358589
631.570597	0.362409
631.916556	0.360924
632.262462	0.360993
632.608316	0.362859
632.954117	0.363949
633.299866	0.364798
633.645562	0.365345
633.991206	0.369223
634.336797	0.372597
634.682336	0.374320
635.027823	0.376261
635.373257	0.376912
635.718639	0.380181
636.063968	0.379482
636.409245	0.385647
636.754470	0.385737
637.099642	0.387718
637.444762	0.391706
637.789829	0.390257
638.134845	0.394434
638.479808	0.395700
638.824719	0.394784
639.169577	0.399011
639.514383	0.397654
639.859137	0.402304
640.203839	0.401593
640.548489	0.402076
640.893086	0.403319
641.237632	0.404807
641.582125	0.403757
641.926566	0.405380
642.270955	0.405384
642.615292	0.405980
642.959576	0.405017
643.303809	0.405568
643.647990	0.404880
643.992118	0.405557
644.336195	0.409365
644.680219	0.406966
645.024192	0.408501
645.368112	0.401990
645.711981	0.400852
646.055797	0.396124
646.399562	0.398545
646.743274	0.390641
647.086935	0.387959
647.430544	0.388081
647.774101	0.386937
648.117606	0.386543
648.461059	0.387431
648.804460	0.389515
649.147810	0.394296
649.491108	0.396622
649.834354	0.397992
650.177548	0.403681
650.520690	0.408923
650.863781	0.409826
651.206820	0.408345
651.549807	0.413688
651.892742	0.417282
652.235626	0.417274
652.578458	0.418303
652.921238	0.424162
653.263967	0.422029
653.606644	0.425990
653.949269	0.425605
654.291843	0.429644
654.634365	0.426716
654.976836	0.429715
655.319255	0.429673
655.661622	0.431619
656.003938	0.431556
656.346203	0.433822
656.688416	0.432271
657.030577	0.435860
657.372687	0.437732
657.714746	0.438445
658.056753	0.435296
658.398708	0.439100
658.740612	0.440107
659.082465	0.436252
659.424266	0.436702
659.766016	0.436355
660.107715	0.439073
660.449362	0.437913
660.790958	0.438329
661.132503	0.438994
661.473996	0.437042
661.815438	0.437634
662.156829	0.437806
662.498168	0.439131
662.839456	0.440105
663.180693	0.437921
663.521879	0.437196
663.863013	0.438733
664.204097	0.436882
664.545129	0.434075
664.886110	0.434220
665.227040	0.431563
665.567918	0.434347
665.908746	0.432253
666.249522	0.432072
666.590248	0.433230
666.930922	0.430833
667.271545	0.430194
667.612118	0.429796
667.952639	0.431543
668.293109	0.430272
668.633528	0.433684
668.973896	0.433001
669.314213	0.433494
669.654480	0.435339
669.994695	0.436009
670.334859	0.436115
670.674973	0.436635
671.015035	0.436732
671.355047	0.436902
671.695008	0.437628
672.034918	0.439159
672.374777	0.438871
672.714585	0.440297
673.054342	0.439471
673.394049	0.440307
673.733705	0.438173
674.073310	0.438676
674.412864	0.442182
674.752368	0.442251
675.091820	0.442210
675.431223	0.447036
675.770574	0.447154
676.109875	0.449417
676.449125	0.449917
676.788324	0.452203
677.127473	0.457636
677.466571	0.457191
677.805619	0.458956
678.144616	0.460191
678.483562	0.461792
678.822458	0.464851
679.161303	0.465462
679.500098	0.465396
679.838842	0.467358
680.177535	0.466569
680.516179	0.465337
680.854771	0.463909
681.193314	0.457677
681.531805	0.449094
681.870247	0.437751
682.208638	0.430314
682.546978	0.429066
682.885268	0.430837
683.223508	0.437408
683.561697	0.440815
683.899836	0.443849
684.237925	0.447145
684.575963	0.449189
684.913951	0.452437
685.251889	0.448712
685.589776	0.450118
685.927614	0.452871
686.265401	0.447291
686.603137	0.448291
686.940824	0.442403
687.278460	0.440392
687.616046	0.440191
687.953582	0.434885
688.291068	0.436766
688.628504	0.432464
688.965889	0.434346
689.303224	0.438575
689.640510	0.442117
689.977745	0.448314
690.314930	0.455864
690.652065	0.460759
690.989150	0.468458
691.326185	0.474422
691.663170	0.479006
692.000105	0.486735
692.336990	0.493196
692.673825	0.495681
693.010610	0.502234
693.347345	0.507876
693.684030	0.509428
694.020665	0.514158
694.357251	0.523496
694.693786	0.522651
695.030272	0.526823
695.366707	0.530387
695.703093	0.533592
696.039429	0.531519
696.375716	0.533358
696.711952	0.536347
697.048139	0.537751
697.384276	0.539938
697.720363	0.537665
698.056400	0.537174
698.392388	0.542379
698.728326	0.545848
699.064214	0.548519
699.400053	0.549234
699.735842	0.552885
700.071581	0.555789
700.407270	0.558678
700.742910	0.560677
701.078501	0.568002
701.414042	0.568033
701.749533	0.571175
702.084974	0.579607
702.420366	0.572012
702.755709	0.579778
703.091002	0.587634
703.426246	0.580076
703.761440	0.586711
704.096584	0.591212
704.431679	0.588772
704.766725	0.590672
705.101721	0.592076
705.436668	0.587766
705.771565	0.595784
706.106413	0.592178
706.441212	0.587165
706.775961	0.586502
707.110661	0.588765
707.445311	0.585438
707.779913	0.582374
708.114465	0.580565
708.448967	0.577892
708.783421	0.569934
709.117825	0.564581
709.452180	0.564769
709.786485	0.558108
710.120742	0.548029
710.454949	0.550351
710.789107	0.542049
711.123216	0.532915
711.457275	0.535317
711.791286	0.526178
712.125247	0.524592
712.459159	0.535174
712.793023	0.528429
713.126837	0.532473
713.460602	0.532418
713.794318	0.542444
714.127985	0.540724
714.461602	0.550529
714.795171	0.554368
715.128691	0.562278
715.462162	0.569022
715.795584	0.574196
716.128957	0.578173
716.462281	0.584261
716.795556	0.587616
717.128782	0.592725
717.461960	0.602237
717.795088	0.601019
718.128167	0.606729
718.461198	0.615406
718.794180	0.616707
719.127113	0.619104
719.459997	0.622701
719.792833	0.629455
720.125619	0.630046
720.458357	0.635789
720.791046	0.635051
721.123686	0.638937
721.456278	0.646116
721.788821	0.643280
722.121315	0.647601
722.453761	0.651628
722.786158	0.649732
723.118506	0.646596
723.450805	0.654573
723.783056	0.649842
724.115259	0.646829
724.447412	0.647176
724.779518	0.648083
725.111574	0.647307
725.443582	0.643091
725.775542	0.644025
726.107453	0.636890
726.439315	0.636686
726.771129	0.635039
727.102895	0.628745
727.434612	0.621446
727.766281	0.619302
728.097901	0.618765
728.429473	0.618849
728.760996	0.616622
729.092471	0.616385
729.423897	0.620342
729.755276	0.619350
730.086606	0.619615
730.417887	0.614385
730.749120	0.605131
731.080305	0.595880
731.411442	0.592090
731.742530	0.597265
732.073570	0.596482
732.404562	0.588245
732.735506	0.590177
733.066401	0.594850
733.397249	0.603807
733.728048	0.614737
734.058798	0.627665
734.389501	0.638043
734.720156	0.647467
735.050762	0.655491
735.381320	0.656548
735.711831	0.666284
736.042293	0.671368
736.372707	0.666559
736.703073	0.671653
737.033391	0.673663
737.363661	0.670140
737.693883	0.665639
738.024056	0.665776
738.354182	0.665391
738.684260	0.654320
739.014290	0.650261
739.344272	0.651080
739.674207	0.644887
740.004093	0.644793
740.333931	0.645135
740.663722	0.644780
740.993464	0.645252
741.323159	0.649616
741.652806	0.654446
741.982405	0.659196
742.311956	0.663351
742.641460	0.665917
742.970915	0.669184
743.300323	0.676478
743.629683	0.683180
743.958996	0.685093
744.288260	0.689679
744.617477	0.694915
744.946647	0.696678
745.275768	0.701377
745.604842	0.702162
745.933869	0.711296
746.262847	0.712241
746.591778	0.705862
746.920662	0.712222
747.249498	0.718779
747.578286	0.709435
747.907027	0.705923
748.235720	0.707044
748.564365	0.702182
748.892963	0.701096
749.221514	0.704663
749.550017	0.709761
749.878473	0.708368
750.206881	0.715298
750.535242	0.717324
750.863555	0.716507
751.191821	0.718122
751.520039	0.720817
751.848210	0.725645
752.176334	0.718579
752.504411	0.717901
752.832440	0.725408
753.160421	0.728917
753.488356	0.727400
753.816243	0.725461
754.144082	0.734310
754.471875	0.736609
754.799620	0.732568
755.127318	0.734463
755.454969	0.733983
755.782572	0.733439
756.110129	0.738164
756.437638	0.740414
756.765100	0.736844
757.092515	0.734855
757.419882	0.734196
757.747203	0.738744
758.074477	0.738566
758.401703	0.736386
758.728882	0.730853
759.056014	0.730497
759.383099	0.728504
759.710138	0.730330
760.037129	0.726324
760.364073	0.720127
760.690970	0.722585
761.017820	0.728333
761.344623	0.724502
761.671379	0.714982
761.998088	0.703712
762.324751	0.681033
762.651366	0.639538
762.977935	0.572325
763.304456	0.521026
763.630931	0.511590
763.957359	0.550410
764.283740	0.594645
764.610074	0.622147
764.936362	0.652840
765.262602	0.679316
765.588796	0.700470
765.914943	0.718280
766.241044	0.736615
766.567097	0.742510
766.893104	0.752642
767.219064	0.757912
767.544978	0.765118
767.870845	0.778620
768.196665	0.783275
768.522438	0.780793
768.848165	0.780894
769.173846	0.791304
769.499479	0.795065
769.825066	0.798514
770.150607	0.803918
770.476101	0.798803
770.801548	0.800304
771.126949	0.810860
771.452303	0.815748
771.777611	0.814097
772.102872	0.813906
772.428087	0.819607
772.753256	0.821428
773.078378	0.823617
773.403453	0.833077
773.728482	0.836821
774.053465	0.830193
774.378401	0.833531
774.703291	0.842983
775.028135	0.841931
775.352932	0.844030
775.677683	0.846880
776.002388	0.847469
776.327046	0.845786
776.651658	0.849702
776.976224	0.852734
777.300743	0.853990
777.625216	0.855670
777.949643	0.857511
778.274024	0.857010
778.598359	0.859604
778.922647	0.857304
779.246889	0.858939
779.571086	0.863037
779.895236	0.864451
780.219339	0.861285
780.543397	0.858402
780.867409	0.856917
781.191374	0.858203
781.515294	0.861167
781.839167	0.859756
782.162995	0.862471
782.486776	0.859953
782.810511	0.860826
783.134201	0.864388
783.457844	0.861865
783.781441	0.864429
784.104993	0.871216
784.428498	0.872181
784.751958	0.866940
785.075372	0.869310
785.398739	0.872476
785.722061	0.869786
786.045337	0.865065
786.368568	0.868977
786.691752	0.872848
787.014891	0.858103
787.337983	0.849161
787.661030	0.841640
787.984031	0.824531
788.306987	0.811260
788.629897	0.813385
788.952760	0.818292
789.275579	0.822118
789.598351	0.836525
789.921078	0.850498
790.243759	0.852413
790.566395	0.857641
790.888984	0.863095
791.211529	0.869224
791.534027	0.873057
791.856480	0.874819
792.178888	0.879125
792.501249	0.882240
792.823566	0.883156
793.145836	0.883115
793.468062	0.885177
793.790241	0.885462
794.112375	0.883394
794.434464	0.878532
794.756507	0.878300
795.078505	0.877925
795.400457	0.873427
795.722364	0.860280
796.044226	0.853754
796.366042	0.853638
796.687812	0.856663
797.009538	0.851861
797.331218	0.854785
797.652852	0.860003
797.974442	0.864577
798.295986	0.865139
798.617484	0.867513
798.938938	0.871537
799.260346	0.876182
799.581709	0.878093
799.903026	0.881030
800.224299	0.881984
800.545526	0.885547
800.866708	0.889267
801.187845	0.893139
801.508936	0.892207
801.829983	0.890422
802.150984	0.893033
802.471940	0.897214
802.792851	0.896708
803.113717	0.897950
803.434538	0.895794
803.755314	0.898756
804.076045	0.900480
804.396731	0.900948
804.717372	0.899601
805.037967	0.902381
805.358518	0.899338
805.679024	0.897168
805.999485	0.897163
806.319901	0.898416
806.640272	0.898899
806.960598	0.897190
807.280879	0.894651
807.601115	0.891836
807.921306	0.896902
808.241453	0.896870
808.561554	0.893568
808.881611	0.894682
809.201623	0.896666
809.521590	0.896441
809.841513	0.896544
810.161390	0.897250
810.481223	0.898058
810.801011	0.901775
811.120755	0.903123
811.440453	0.901521
811.760107	0.900325
812.079716	0.900751
812.399281	0.904731
812.718801	0.906539
813.038276	0.909209
813.357707	0.907216
813.677093	0.904510
813.996434	0.906737
814.315731	0.908146
814.634983	0.910332
814.954191	0.908622
815.273354	0.905979
815.592473	0.902375
815.911547	0.902290
816.230577	0.899164
816.549562	0.897340
816.868502	0.897731
817.187399	0.893275
817.506250	0.888553
817.825058	0.891058
818.143821	0.886488
818.462539	0.882828
818.781213	0.873572
819.099843	0.863508
819.418429	0.848036
819.736970	0.830693
820.055466	0.811057
820.373919	0.786350
820.692327	0.753123
821.010691	0.719082
821.329011	0.643269
821.647286	0.528453
821.965517	0.414723
822.283704	0.372515
822.601847	0.374673
822.919945	0.410397
823.237999	0.442970
823.556010	0.489560
823.873976	0.544921
824.191897	0.594928
824.509775	0.637297
824.827609	0.682109
825.145398	0.704350
825.463144	0.707572
825.780845	0.690112
826.098502	0.671570
826.416116	0.626633
826.733685	0.582421
827.051210	0.573947
827.368692	0.588654
827.686129	0.625442
828.003522	0.678343
828.320872	0.725541
828.638177	0.768749
828.955439	0.801597
829.272656	0.823353
829.589830	0.839897
829.906960	0.856357
830.224046	0.867877
830.541088	0.878194
830.858086	0.881795
831.175041	0.888246
831.491952	0.887629
831.808819	0.883646
832.125642	0.877654
832.442421	0.862345
832.759157	0.841489
833.075849	0.795548
833.392497	0.732112
833.709101	0.692338
834.025662	0.701770
834.342179	0.733520
834.658653	0.770605
834.975083	0.807144
835.291469	0.834069
835.607811	0.855355
835.924110	0.871108
836.240366	0.887716
836.556578	0.902719
836.872746	0.909162
837.188871	0.915542
837.504952	0.920320
837.820990	0.924434
838.136984	0.927656
838.452935	0.929925
838.768842	0.931774
839.084706	0.925781
839.400526	0.899780
839.716303	0.860727
840.032037	0.837875
840.347727	0.841081
840.663373	0.859359
840.978977	0.881544
841.294537	0.903105
841.610054	0.919550
841.925527	0.926858
842.240957	0.932684
842.556344	0.940709
842.871687	0.946172
843.186987	0.950933
843.502244	0.950530
843.817458	0.951293
844.132629	0.955958
844.447756	0.960266
844.762840	0.960272
845.077881	0.959684
845.392879	0.960346
845.707833	0.962663
846.022745	0.965284
846.337613	0.964677
846.652438	0.965965
846.967221	0.963765
847.281960	0.964749
847.596656	0.966740
847.911309	0.965066
848.225919	0.968923
848.540485	0.968388
848.855009	0.968556
849.169490	0.968184
849.483928	0.969307
849.798323	0.969945
850.112675	0.969733
850.426984	0.969446
850.741251	0.970080
851.055474	0.970826
851.369654	0.967791
851.683792	0.970017
851.997887	0.970088
852.311938	0.971338
852.625947	0.970487
852.939914	0.969348
853.253837	0.968411
853.567718	0.971006
853.881555	0.970128
854.195350	0.967700
854.509103	0.970020
854.822812	0.970968
855.136479	0.970215
855.450103	0.970378
855.763685	0.967953
856.077224	0.969211
856.390720	0.970606
856.704173	0.970319
857.017584	0.968602
857.330953	0.966808
857.644278	0.968374
857.957561	0.968318
858.270802	0.968564
858.584000	0.967808
858.897155	0.966856
859.210268	0.967073
859.523339	0.968299
859.836367	0.969992
860.149352	0.970591
860.462295	0.969145
860.775195	0.969968
861.088054	0.969547
861.400869	0.970485
861.713642	0.970133
862.026373	0.970049
862.339062	0.971455
862.651708	0.968137
862.964312	0.968593
863.276873	0.969156
863.589392	0.969131
863.901869	0.966075
864.214303	0.966007
864.526696	0.964417
864.839045	0.963581
865.151353	0.962358
865.463619	0.962328
865.775842	0.963165
866.088023	0.962564
866.400162	0.961933
866.712258	0.962494
867.024313	0.962846
867.336325	0.963910
867.648296	0.963892
867.960224	0.961841
868.272110	0.963492
868.583954	0.963693
868.895755	0.963680
869.207515	0.961967
869.519233	0.960020
869.830909	0.961878
870.142542	0.963497
870.454134	0.962371
870.765684	0.961528
871.077191	0.957991
871.388657	0.958782
871.700081	0.958408
872.011463	0.958583
872.322803	0.958297
872.634101	0.957217
872.945357	0.955514
873.256571	0.952717
873.567744	0.953920
873.878874	0.954619
874.189963	0.952479
874.501010	0.951627
874.812015	0.950466
875.122979	0.951339
875.433900	0.953987
875.744780	0.955002
876.055618	0.950571
876.366415	0.950590
876.677169	0.949868
876.987882	0.952382
877.298554	0.951911
877.609183	0.948891
877.919771	0.944901
878.230317	0.943006
878.540822	0.942134
878.851285	0.935434
879.161707	0.928114
879.472087	0.917101
879.782425	0.899753
880.092722	0.867382
880.402977	0.816288
880.713191	0.756289
881.023363	0.697943
881.333494	0.664992
881.643583	0.637163
881.953631	0.636641
882.263637	0.665406
882.573602	0.704611
882.883526	0.730211
883.193408	0.752180
883.503248	0.774129
883.813048	0.801951
884.122806	0.830384
884.432522	0.854399
884.742197	0.872404
885.051831	0.884199
885.361424	0.893239
885.670975	0.905258
885.980485	0.914904
886.289954	0.921297
886.599382	0.925343
886.908768	0.929080
887.218113	0.935377
887.527417	0.939921
887.836680	0.941669
888.145901	0.944633
888.455082	0.946734
888.764221	0.952014
889.073319	0.952943
889.382376	0.954833
889.691392	0.953020
890.000366	0.953359
890.309300	0.954685
890.618193	0.952920
890.927044	0.953020
891.235855	0.951752
891.544625	0.951611
891.853353	0.952842
892.162041	0.950346
892.470687	0.944059
892.779293	0.939595
893.087858	0.935455
893.396381	0.927374
893.704864	0.915461
894.013306	0.890796
894.321707	0.864379
894.630068	0.851482
894.938387	0.845993
895.246665	0.847809
895.554903	0.860423
895.863100	0.872351
896.171256	0.888731
896.479371	0.908190
896.787446	0.921230
897.095480	0.926796
897.403473	0.929919
897.711425	0.934807
898.019336	0.940385
898.327207	0.944192
898.635038	0.946578
898.942827	0.945480
899.250576	0.949701
899.558284	0.953294
899.865952	0.955003
900.173579	0.955267
900.481165	0.956382
900.788711	0.959848
901.096216	0.961008
901.403681	0.962310
901.711105	0.964557
902.018489	0.964221
902.325832	0.962944
902.633135	0.963447
902.940397	0.956659
903.247619	0.945059
903.554800	0.919562
903.861941	0.882285
904.169041	0.847464
904.476101	0.830286
904.783121	0.830832
905.090100	0.846721
905.397039	0.867221
905.703938	0.888867
906.010796	0.907925
906.317614	0.924384
906.624391	0.936368
906.931129	0.945332
907.237826	0.953154
907.544483	0.958937
907.851099	0.962277
908.157675	0.968990
908.464211	0.971075
908.770707	0.972592
909.077163	0.975048
909.383578	0.975826
909.689954	0.975130
909.996289	0.976445
910.302584	0.977110
910.608839	0.980560
910.915054	0.979007
911.221229	0.978362
911.527363	0.977339
911.833458	0.977288
912.139513	0.977362
912.445527	0.976321
912.751502	0.974127
913.057436	0.972062
913.363331	0.969797
913.669186	0.966771
913.975000	0.961585
914.280775	0.956801
914.586510	0.949551
914.892205	0.935949
915.197859	0.916424
915.503475	0.889299
915.809050	0.870866
916.114585	0.865866
916.420081	0.862611
916.725536	0.859131
917.030952	0.866833
917.336328	0.879890
917.641665	0.893616
917.946961	0.909908
918.252218	0.921793
918.557435	0.929008
918.862612	0.938449
919.167750	0.944024
919.472848	0.948219
919.777906	0.954050
920.082925	0.958834
920.387904	0.962205
920.692843	0.964417
920.997743	0.965358
921.302603	0.968805
921.607423	0.969730
921.912204	0.973150
922.216946	0.972107
922.521647	0.973956
922.826310	0.975375
923.130932	0.976942
923.435516	0.978946
923.740059	0.980635
924.044564	0.978770
924.349028	0.980966
924.653454	0.983780
924.957840	0.984781
925.262186	0.984520
925.566493	0.984009
925.870761	0.984284
926.174989	0.987827
926.479178	0.988393
926.783328	0.988565
927.087438	0.988082
927.391509	0.988657
927.695541	0.991202
927.999533	0.990264
928.303486	0.990406
928.607400	0.991110
928.911275	0.989774
929.215110	0.990117
929.518906	0.990426
929.822663	0.989428
930.126381	0.991450
930.430060	0.991003
930.733699	0.990891
931.037299	0.989751
931.340861	0.990871
931.644383	0.988913
931.947866	0.989182
932.251309	0.990358
932.554714	0.990246
932.858080	0.989804
933.161407	0.990151
933.464694	0.991339
933.767943	0.989374
934.071153	0.991436
934.374323	0.992075
934.677455	0.989854
934.980548	0.992903
935.283602	0.989757
935.586617	0.990746
935.889593	0.991108
936.192530	0.990520
936.495428	0.991729
936.798287	0.990080
937.101108	0.989985
937.403890	0.989163
937.706632	0.988716
938.009336	0.987186
938.312002	0.986170
938.614628	0.985089
938.917216	0.983116
939.219765	0.981127
939.522275	0.983709
939.824747	0.983148
940.127179	0.983350
940.429573	0.984880
940.731929	0.985038
941.034246	0.984702
941.336524	0.986530
941.638763	0.986616
941.940964	0.986917
942.243126	0.986482
942.545250	0.987105
942.847335	0.988427
943.149381	0.988635
943.451389	0.987901
943.753359	0.987923
944.055290	0.990006
944.357182	0.989459
944.659036	0.989251
944.960851	0.989933
945.262628	0.989565
945.564367	0.990875
945.866067	0.990699
946.167729	0.990482
946.469352	0.989295
946.770937	0.989120
947.072484	0.990281
947.373992	0.990344
947.675462	0.990087
947.976893	0.990392
948.278286	0.989697
948.579641	0.991891
948.880958	0.990049
949.182236	0.991039
949.483476	0.990932
949.784678	0.990173
950.085841	0.991662
950.386967	0.990158
950.688054	0.990539
950.989103	0.990890
951.290114	0.989163
951.591087	0.989779
951.892021	0.989916
952.192917	0.988595
952.493776	0.988569
952.794596	0.989333
953.095378	0.987812
953.396122	0.988771
953.696828	0.987411
953.997496	0.989132
954.298126	0.989523
954.598718	0.990677
954.899272	0.990146
955.199788	0.990443
955.500266	0.992269
955.800706	0.993228
956.101108	0.992914
956.401472	0.993376
956.701798	0.993875
957.002087	0.993492
957.302337	0.994218
957.602550	0.995507
957.902724	0.993491
958.202861	0.994426
958.502960	0.994919
958.803022	0.994829
959.103045	0.995693
959.403031	0.996195
959.702979	0.996013
960.002889	0.995930
960.302762	0.995214
960.602596	0.995721
960.902393	0.995054
961.202153	0.997128
961.501875	0.997009
961.801559	0.995545
962.101205	0.996697
962.400814	0.996046
962.700385	0.995524
962.999918	0.996164
963.299414	0.995892
963.598873	0.996214
963.898293	0.996449
964.197677	0.996407
964.497022	0.995511
964.796331	0.997695
965.095601	0.996948
965.394835	0.995812
965.694030	0.997258
965.993189	0.997285
966.292309	0.996813
966.591393	0.997324
966.890439	0.995861
967.189447	0.997296
967.488419	0.996802
967.787353	0.994964
968.086249	0.995808
968.385108	0.997091
968.683930	0.997038
968.982714	0.997586
969.281462	0.997446
969.580172	0.995959
969.878844	0.996552
970.177480	0.996399
970.476078	0.997698
970.774639	0.996300
971.073162	0.996506
971.371649	0.996112
971.670098	0.995478
971.968510	0.997609
972.266885	0.996153
972.565223	0.996757
972.863524	0.996439
973.161788	0.995549
973.460014	0.996957
973.758204	0.995482
974.056356	0.995960
974.354471	0.993844
974.652550	0.996776
974.950591	0.996021
975.248595	0.996137
975.546563	0.997104
975.844493	0.997228
976.142386	0.997374
976.440243	0.996991
976.738062	0.997540
977.035845	0.997374
977.333590	0.996512
977.631299	0.996728
977.928971	0.996701
978.226606	0.997370
978.524204	0.996644
978.821765	0.999142
979.119290	0.997105
979.416777	0.997101
979.714228	0.997202
980.011642	0.995427
980.309020	0.997440
980.606360	0.996445
980.903664	0.997989
981.200931	0.995726
981.498162	0.994776
981.795356	0.994831
982.092513	0.994271
982.389633	0.995266
982.686717	0.991922
982.983764	0.991520
983.280775	0.989994
983.577749	0.990615
983.874686	0.990284
984.171587	0.991951
984.468451	0.993604
984.765279	0.995225
985.062070	0.995026
985.358824	0.995843
985.655543	0.995143
985.952224	0.996673
986.248869	0.996575
986.545478	0.996007
986.842050	0.998873
987.138586	0.994966
987.435086	0.997688
987.731549	0.998653
988.027975	0.997823
988.324366	0.996527
988.620719	0.998170
988.917037	0.997745
989.213318	0.999080
989.509563	0.998366
989.805772	0.998398
990.101944	0.997508
990.398080	0.996988
990.694180	0.998001
990.990244	0.997484
991.286271	0.998185
991.582262	0.997330
991.878217	0.998377
992.174136	0.998216
992.470019	0.997232
992.765865	0.998148
993.061676	0.999249
993.357450	0.998086
993.653188	0.996886
993.948890	0.997102
994.244556	0.998044
994.540186	0.997134
994.835780	0.995890
995.131337	0.996795
995.426859	0.996233
995.722345	0.997233
996.017795	0.996534
996.313208	0.995405
996.608586	0.994944
996.903928	0.997002
997.199234	0.995157
997.494504	0.996854
997.789738	0.996312
998.084936	0.996540
998.380099	0.998113
998.675225	0.997604
998.970316	0.997374
999.265371	0.998295
999.560390	0.998000
999.855373	0.999075
1000.150320	0.998254
1000.445232	0.997952
1000.740108	0.997497
1001.034948	0.997158
1001.329752	0.998518
1001.624521	0.998087
1001.919254	0.997087
1002.213951	0.997072
1002.508613	0.997774
1002.803239	0.998472
1003.097829	0.997314
1003.392384	0.999272
1003.686903	0.997802
1003.981386	0.997535
1004.275834	0.999588
1004.570246	0.998496
1004.864623	0.998585
1005.158964	0.997301
1005.453270	0.997834
1005.747540	0.996955
1006.041775	0.998034
1006.335974	0.998993
1006.630138	0.999598
1006.924266	0.998644
1007.218359	1.000528
1007.512416	0.999018
1007.806438	0.998076
1008.100425	0.999007
1008.394376	0.999023
1008.688292	0.999121
1008.982172	0.998946
1009.276017	0.998624
1009.569827	0.997003
1009.863602	0.998452
1010.157341	1.000295
1010.451045	0.999987
1010.744714	0.998591
1011.038347	0.999364
1011.331945	0.998780
1011.625508	0.998128
1011.919036	0.997891
1012.212528	0.998495
1012.505986	0.998495
1012.799408	0.998312
1013.092795	0.998941
1013.386147	0.997907
1013.679464	0.998541
1013.972745	0.998466
1014.265992	0.996971
1014.559204	0.998472
1014.852380	0.999106
1015.145521	0.999077
1015.438628	0.998373
1015.731699	0.998391
1016.024736	0.998878
1016.317737	0.998973
1016.610703	0.998487
1016.903635	0.999101
1017.196531	0.998129
1017.489393	0.999776
1017.782219	0.999604
1018.075011	0.998656
1018.367768	0.998620
1018.660490	0.998624
1018.953177	0.998624
1019.245829	0.998624
