Dividing Wavelength (nm)	Counts (n)	Blue Motor Position (mm): 0.000000	Red Motor Position (mm): 37.800000	
326.493990	1.000897
326.888308	1.000897
327.282561	1.000897
327.676750	1.000472
328.070874	0.999698
328.464933	1.000635
328.858929	0.998611
329.252859	0.998956
329.646726	0.999289
330.040528	1.000242
330.434265	0.999666
330.827938	1.000544
331.221547	1.000966
331.615091	1.000421
332.008571	1.000567
332.401986	0.999941
332.795338	0.999597
333.188625	0.998135
333.581847	1.000767
333.975006	0.998994
334.368100	0.999038
334.761129	0.999233
335.154095	1.000917
335.546996	0.999286
335.939833	0.997174
336.332606	0.996793
336.725315	0.998923
337.117960	0.999253
337.510540	0.996324
337.903056	0.997382
338.295508	0.996318
338.687896	0.996534
339.080220	0.997116
339.472480	0.997010
339.864676	0.996866
340.256807	0.998344
340.648875	0.998801
341.040879	0.997141
341.432818	0.996782
341.824694	0.997656
342.216506	0.997799
342.608253	0.997992
342.999937	0.997235
343.391557	0.997032
343.783113	0.997331
344.174605	0.998324
344.566033	0.997270
344.957397	0.996358
345.348697	0.996112
345.739934	0.996644
346.131106	0.997179
346.522215	0.996286
346.913260	0.996917
347.304241	0.995665
347.695159	0.996816
348.086012	0.995469
348.476802	0.996517
348.867528	0.996468
349.258191	0.996197
349.648789	0.997309
350.039324	0.996797
350.429796	0.997226
350.820203	0.996884
351.210548	0.997000
351.600828	0.997533
351.991045	0.996946
352.381198	0.996317
352.771288	0.995990
353.161314	0.997313
353.551276	0.998310
353.941175	0.996605
354.331010	0.996983
354.720782	0.997030
355.110490	0.997771
355.500135	0.997619
355.889717	0.996403
356.279235	0.996543
356.668689	0.996793
357.058080	0.996804
357.447408	0.997201
357.836672	0.998066
358.225873	0.997547
358.615010	0.997591
359.004084	0.997747
359.393095	0.997443
359.782043	0.996170
360.170927	0.997696
360.559748	0.998070
360.948505	0.997004
361.337199	0.997309
361.725830	0.997663
362.114398	0.997056
362.502903	0.998271
362.891344	0.998510
363.279722	0.996521
363.668037	0.998311
364.056289	0.996544
364.444478	0.997470
364.832603	0.997937
365.220665	0.996190
365.608665	0.997442
365.996601	0.996331
366.384474	0.997725
366.772284	0.997491
367.160031	0.996189
367.547715	0.995833
367.935336	0.997606
368.322893	0.997106
368.710388	0.996410
369.097820	0.996584
369.485189	0.995861
369.872495	0.997024
370.259738	0.996269
370.646918	0.998464
371.034035	0.997437
371.421090	0.997101
371.808081	0.997162
372.195010	0.996868
372.581875	0.998083
372.968678	0.996740
373.355418	0.998242
373.742096	0.997428
374.128710	0.998127
374.515262	0.997278
374.901751	0.997364
375.288177	0.997505
375.674540	0.998338
376.060841	0.996143
376.447079	0.997606
376.833254	0.996817
377.219367	0.997964
377.605417	0.997608
377.991404	0.997828
378.377329	0.997346
378.763191	0.998022
379.148991	0.997963
379.534727	0.997834
379.920402	0.997435
380.306013	0.998797
380.691563	0.999503
381.077049	0.997670
381.462474	0.997631
381.847835	0.997228
382.233134	0.997709
382.618371	0.998495
383.003545	0.998019
383.388657	0.997082
383.773706	0.999046
384.158693	0.998624
384.543618	0.997790
384.928480	0.998269
385.313280	0.998213
385.698017	0.998092
386.082692	0.998207
386.467305	0.998656
386.851856	0.997335
387.236344	0.998423
387.620770	0.997984
388.005133	0.998673
388.389435	0.999755
388.773674	0.997866
389.157851	0.998035
389.541965	0.997750
389.926018	0.998141
390.310008	0.998572
390.693936	0.998973
391.077802	0.999311
391.461606	0.998135
391.845348	0.999031
392.229027	1.000471
392.612645	0.999102
392.996200	0.999273
393.379694	0.998210
393.763125	0.999385
394.146494	0.998363
394.529801	0.998223
394.913047	0.999984
395.296230	0.998584
395.679351	0.997680
396.062410	0.998153
396.445408	0.999376
396.828343	0.998640
397.211217	0.997772
397.594028	0.999960
397.976778	0.998051
398.359466	0.998352
398.742092	0.998233
399.124656	0.998518
399.507158	0.998550
399.889598	0.998330
400.271977	0.999247
400.654294	0.999470
401.036549	0.998567
401.418742	0.998625
401.800874	0.998379
402.182944	0.998794
402.564952	0.998771
402.946898	0.999755
403.328783	0.999449
403.710606	0.999376
404.092367	0.999661
404.474067	0.999805
404.855705	0.999275
405.237282	0.999196
405.618797	0.998487
406.000250	0.998772
406.381642	0.999023
406.762972	0.998616
407.144240	0.999021
407.525447	0.999541
407.906593	0.999048
408.287677	0.998784
408.668700	0.999991
409.049661	0.998931
409.430560	0.999836
409.811399	0.998533
410.192176	0.999426
410.572891	0.998468
410.953545	0.999370
411.334138	0.997804
411.714669	0.999258
412.095139	0.997175
412.475547	0.999781
412.855894	0.998520
413.236180	0.999023
413.616405	0.999086
413.996568	0.999965
414.376670	0.999562
414.756711	0.998573
415.136691	0.998932
415.516609	0.999649
415.896466	0.998889
416.276262	0.997880
416.655997	0.999312
417.035670	0.998056
417.415283	0.999538
417.794834	0.998738
418.174324	0.999089
418.553753	0.999393
418.933121	0.999105
419.312428	0.999242
419.691674	0.999059
420.070859	0.999094
420.449983	0.999787
420.829045	0.999204
421.208047	0.999365
421.586988	1.000158
421.965867	0.999231
422.344686	1.000182
422.723444	0.998989
423.102141	0.998795
423.480777	0.999334
423.859352	0.999315
424.237866	0.998733
424.616319	0.999455
424.994712	0.999709
425.373044	0.999724
425.751314	1.000500
426.129524	0.999160
426.507673	0.999742
426.885762	1.000527
427.263789	0.999728
427.641756	0.999655
428.019662	1.000113
428.397508	0.999281
428.775292	0.999007
429.153016	0.998810
429.530679	0.999896
429.908282	0.999563
430.285824	0.999036
430.663305	0.999056
431.040726	0.999522
431.418086	1.000051
431.795385	0.999762
432.172624	0.999173
432.549802	1.000152
432.926920	0.999847
433.303977	0.998990
433.680974	1.000166
434.057910	0.999396
434.434786	0.999759
434.811601	0.998790
435.188355	0.998998
435.565050	0.999470
435.941683	0.999717
436.318257	1.000649
436.694770	0.998431
437.071222	0.999619
437.447614	0.999817
437.823946	0.999482
438.200218	0.999539
438.576429	0.999698
438.952580	0.999625
439.328670	0.998777
439.704700	0.999667
440.080670	0.999708
440.456580	0.999656
440.832429	0.999008
441.208218	0.999822
441.583947	1.000140
441.959616	1.000109
442.335224	0.998927
442.710773	1.000443
443.086261	0.999294
443.461689	0.999473
443.837057	0.999708
444.212365	1.000625
444.587612	0.999907
444.962800	0.999759
445.337927	0.999152
445.712995	0.999783
446.088002	1.000235
446.462949	0.999763
446.837837	1.000374
447.212664	0.999673
447.587431	0.999858
447.962139	0.999079
448.336786	0.999465
448.711374	1.000327
449.085901	0.999374
449.460369	1.000067
449.834776	0.999290
450.209124	0.999697
450.583412	0.999561
450.957640	0.999578
451.331808	0.999597
451.705917	0.999608
452.079965	0.999677
452.453954	1.000301
452.827883	0.999748
453.201752	1.000276
453.575562	1.001290
453.949311	1.000508
454.323001	0.999365
454.696632	0.999555
455.070202	0.999867
455.443713	0.999377
455.817164	0.999890
456.190556	1.000127
456.563888	0.999386
456.937160	0.999652
457.310373	0.998964
457.683526	0.999471
458.056619	0.999765
458.429653	1.000628
458.802628	0.999035
459.175542	0.998321
459.548398	0.999628
459.921194	0.999747
460.293930	0.999684
460.666607	0.999452
461.039224	0.998358
461.411782	1.000128
461.784280	0.999411
462.156719	0.999961
462.529099	1.000096
462.901419	1.000148
463.273680	0.999604
463.645882	0.999806
464.018024	1.000057
464.390106	1.000561
464.762130	1.000658
465.134094	0.999882
465.505999	1.000197
465.877845	0.999795
466.249631	1.000273
466.621358	1.000262
466.993026	0.999956
467.364634	0.999724
467.736184	1.000564
468.107674	0.999902
468.479105	0.999651
468.850477	1.000353
469.221790	0.999933
469.593043	0.999638
469.964238	1.000213
470.335373	0.999582
470.706449	1.000405
471.077467	1.001215
471.448425	1.000278
471.819324	1.000491
472.190164	0.999298
472.560945	1.000347
472.931667	0.999654
473.302330	0.999335
473.672934	0.999894
474.043479	1.000397
474.413965	0.999506
474.784393	1.000150
475.154761	0.999522
475.525070	0.999264
475.895321	1.000529
476.265513	0.999690
476.635645	0.999793
477.005719	1.000652
477.375734	0.999095
477.745691	0.999601
478.115588	1.000299
478.485427	1.000730
478.855207	1.000210
479.224928	0.999716
479.594591	1.000449
479.964194	1.000680
480.333739	0.999944
480.703226	1.000024
481.072653	1.000545
481.442022	1.000710
481.811333	0.999115
482.180584	1.000560
482.549777	0.999974
482.918912	1.000200
483.287988	1.000084
483.657005	0.999848
484.025964	1.000155
484.394864	1.000792
484.763706	1.000143
485.132489	1.000619
485.501213	1.000082
485.869879	0.999823
486.238487	1.000432
486.607036	1.000791
486.975527	0.999500
487.343959	0.999635
487.712333	1.000067
488.080648	0.999989
488.448905	0.999918
488.817104	1.000310
489.185244	1.000239
489.553326	1.000571
489.921350	0.999682
490.289315	1.000286
490.657222	1.000423
491.025070	1.000336
491.392861	1.000901
491.760593	1.000718
492.128267	1.000032
492.495883	1.000428
492.863440	1.000177
493.230939	1.000437
493.598380	0.999964
493.965763	0.999378
494.333088	1.000291
494.700354	0.999561
495.067563	0.999844
495.434713	1.000047
495.801805	1.000820
496.168839	0.999796
496.535815	0.999813
496.902733	0.999510
497.269593	0.999720
497.636395	0.999473
498.003139	1.000242
498.369825	1.000444
498.736453	1.000142
499.103023	0.999221
499.469535	0.999811
499.835989	0.999663
500.202385	0.999994
500.568723	0.999709
500.935003	1.000547
501.301226	1.000483
501.667390	0.999288
502.033497	0.999836
502.399546	0.999968
502.765537	0.999743
503.131470	0.999623
503.497345	0.999541
503.863163	1.000472
504.228923	1.000132
504.594625	1.000486
504.960269	1.000178
505.325856	1.000054
505.691385	0.999530
506.056856	0.999780
506.422270	0.999910
506.787625	1.000028
507.152924	1.000147
507.518164	0.999364
507.883347	0.999713
508.248472	0.999506
508.613540	1.000013
508.978550	0.999456
509.343503	0.999097
509.708398	0.999897
510.073236	0.999748
510.438016	1.000063
510.802738	0.999647
511.167403	0.999621
511.532010	1.000346
511.896561	0.999206
512.261053	1.000121
512.625488	0.999814
512.989866	0.999541
513.354186	0.999035
513.718449	0.999574
514.082655	0.999235
514.446803	0.999352
514.810894	0.999558
515.174927	0.999306
515.538904	0.998842
515.902822	0.999159
516.266684	0.998943
516.630488	0.999795
516.994235	0.998719
517.357925	0.999001
517.721558	0.999250
518.085133	0.998300
518.448651	0.999744
518.812112	0.999177
519.175516	0.998612
519.538863	0.998978
519.902152	0.998923
520.265385	0.998393
520.628560	0.998787
520.991678	0.998729
521.354739	0.998808
521.717743	0.999078
522.080690	0.999010
522.443580	0.998303
522.806413	0.998539
523.169189	0.998003
523.531908	0.997794
523.894569	0.998261
524.257174	0.998400
524.619722	0.998720
524.982213	0.998145
525.344647	0.999175
525.707025	0.998297
526.069345	0.997779
526.431608	0.997617
526.793815	0.998330
527.155964	0.998102
527.518057	0.997909
527.880093	0.997790
528.242072	0.998234
528.603995	0.997076
528.965860	0.997974
529.327669	0.996963
529.689421	0.997245
530.051117	0.997735
530.412755	0.996288
530.774337	0.996921
531.135862	0.996455
531.497331	0.997421
531.858743	0.996564
532.220098	0.996953
532.581396	0.996368
532.942638	0.996306
533.303824	0.996484
533.664953	0.996261
534.026025	0.996631
534.387040	0.995793
534.747999	0.995391
535.108902	0.995585
535.469748	0.994342
535.830537	0.994496
536.191270	0.994596
536.551947	0.994026
536.912567	0.994189
537.273131	0.994439
537.633638	0.992892
537.994089	0.993252
538.354483	0.992914
538.714821	0.991765
539.075103	0.992205
539.435328	0.992058
539.795497	0.992007
540.155609	0.991216
540.515665	0.990969
540.875665	0.990594
541.235609	0.990135
541.595496	0.989540
541.955328	0.988795
542.315102	0.988813
542.674821	0.988486
543.034483	0.987022
543.394090	0.986997
543.753640	0.987747
544.113134	0.986223
544.472571	0.986051
544.831953	0.985246
545.191278	0.984191
545.550548	0.984815
545.909761	0.982503
546.268918	0.983203
546.628019	0.982610
546.987064	0.980948
547.346053	0.981375
547.704986	0.979945
548.063863	0.979149
548.422684	0.978542
548.781449	0.977763
549.140158	0.975524
549.498811	0.976239
549.857408	0.975442
550.215949	0.974571
550.574434	0.973086
550.932864	0.972233
551.291237	0.971813
551.649555	0.970137
552.007817	0.969355
552.366022	0.967631
552.724173	0.967554
553.082267	0.966380
553.440305	0.964642
553.798288	0.964152
554.156215	0.961689
554.514086	0.961013
554.871902	0.960186
555.229661	0.957685
555.587365	0.957112
555.945014	0.956941
556.302606	0.954199
556.660143	0.953158
557.017625	0.950536
557.375050	0.949666
557.732421	0.947889
558.089735	0.946913
558.446994	0.945654
558.804197	0.943706
559.161345	0.942214
559.518437	0.941311
559.875474	0.938145
560.232455	0.935895
560.589381	0.935620
560.946251	0.931410
561.303065	0.930955
561.659825	0.928822
562.016528	0.926684
562.373177	0.926359
562.729770	0.922744
563.086307	0.921732
563.442789	0.919351
563.799216	0.916388
564.155587	0.914859
564.511904	0.911989
564.868164	0.909854
565.224370	0.908841
565.580520	0.905208
565.936615	0.904332
566.292654	0.901265
566.648638	0.898066
567.004567	0.895445
567.360441	0.894587
567.716260	0.892021
568.072023	0.889314
568.427732	0.885815
568.783385	0.885410
569.138982	0.880618
569.494525	0.878281
569.850013	0.876066
570.205445	0.872235
570.560823	0.871018
570.916145	0.867786
571.271412	0.864433
571.626625	0.861485
571.981782	0.859488
572.336884	0.856625
572.691931	0.854713
573.046923	0.850126
573.401860	0.848257
573.756743	0.845511
574.111570	0.841953
574.466342	0.840422
574.821059	0.836506
575.175722	0.833728
575.530330	0.830758
575.884882	0.828302
576.239380	0.824625
576.593823	0.822700
576.948211	0.818656
577.302544	0.816812
577.656823	0.812445
578.011047	0.809899
578.365216	0.805793
578.719330	0.803793
579.073389	0.799702
579.427394	0.797605
579.781344	0.794333
580.135239	0.791451
580.489080	0.788338
580.842866	0.785402
581.196597	0.781085
581.550273	0.778483
581.903895	0.775153
582.257463	0.771178
582.610975	0.767625
582.964434	0.765428
583.317837	0.763113
583.671186	0.759341
584.024481	0.755953
584.377721	0.753114
584.730906	0.750204
585.084037	0.746068
585.437113	0.744585
585.790135	0.739671
586.143103	0.737511
586.496016	0.735300
586.848874	0.730038
587.201679	0.727769
587.554428	0.724571
587.907124	0.720442
588.259765	0.718074
588.612352	0.714032
588.964884	0.712990
589.317362	0.708785
589.669786	0.704828
590.022155	0.701857
590.374470	0.697235
590.726731	0.695620
591.078937	0.693154
591.431090	0.688160
591.783188	0.687556
592.135232	0.683034
592.487222	0.681873
592.839157	0.676155
593.191038	0.674461
593.542866	0.671742
593.894639	0.670480
594.246358	0.666001
594.598022	0.662115
594.949633	0.660524
595.301190	0.657187
595.652692	0.654077
596.004141	0.647711
596.355535	0.649611
596.706876	0.645848
597.058162	0.643447
597.409395	0.639178
597.760573	0.634700
598.111698	0.633268
598.462768	0.629980
598.813785	0.628135
599.164748	0.624738
599.515657	0.622564
599.866511	0.619822
600.217312	0.614946
600.568060	0.614405
600.918753	0.609405
601.269392	0.606698
601.619978	0.604972
601.970510	0.600665
602.320988	0.598760
602.671412	0.593124
603.021783	0.592075
603.372100	0.589950
603.722363	0.586140
604.072572	0.583841
604.422728	0.581390
604.772830	0.579461
605.122878	0.575553
605.472872	0.574193
605.822813	0.569491
606.172701	0.568805
606.522534	0.563245
606.872314	0.561188
607.222041	0.557713
607.571714	0.553860
607.921333	0.551621
608.270899	0.548020
608.620411	0.543872
608.969870	0.543602
609.319276	0.540829
609.668627	0.537146
610.017926	0.533728
610.367171	0.529858
610.716362	0.527530
611.065500	0.525379
611.414585	0.521586
611.763616	0.520159
612.112594	0.517124
612.461518	0.514222
612.810389	0.510523
613.159207	0.509390
613.507971	0.508448
613.856682	0.502609
614.205340	0.501820
614.553945	0.496851
614.902496	0.497897
615.250994	0.493443
615.599439	0.492033
615.947830	0.489190
616.296169	0.487900
616.644454	0.484974
616.992686	0.482727
617.340864	0.479030
617.688990	0.479430
618.037063	0.475431
618.385082	0.474642
618.733048	0.470283
619.080961	0.470049
619.428821	0.467308
619.776628	0.464517
620.124382	0.464210
620.472083	0.461540
620.819731	0.459571
621.167326	0.459910
621.514868	0.457474
621.862357	0.458758
622.209793	0.456590
622.557176	0.455653
622.904506	0.454056
623.251783	0.453914
623.599007	0.453681
623.946179	0.450956
624.293297	0.450503
624.640363	0.451710
624.987376	0.450309
625.334336	0.450710
625.681243	0.450305
626.028097	0.449696
626.374899	0.448862
626.721647	0.446560
627.068343	0.448628
627.414987	0.447163
627.761577	0.447222
628.108115	0.444520
628.454600	0.447569
628.801032	0.442978
629.147412	0.444322
629.493739	0.442532
629.840014	0.443861
630.186236	0.440359
630.532405	0.444199
630.878521	0.440543
631.224585	0.441211
631.570597	0.443461
631.916556	0.440073
632.262462	0.439902
632.608316	0.439419
632.954117	0.439093
633.299866	0.439049
633.645562	0.437791
633.991206	0.440618
634.336797	0.441509
634.682336	0.442113
635.027823	0.441882
635.373257	0.441460
635.718639	0.443230
636.063968	0.441227
636.409245	0.445487
636.754470	0.444309
637.099642	0.446088
637.444762	0.446981
637.789829	0.445612
638.134845	0.447253
638.479808	0.447146
638.824719	0.446024
639.169577	0.449453
639.514383	0.446635
639.859137	0.449444
640.203839	0.448743
640.548489	0.448193
640.893086	0.448303
641.237632	0.449230
641.582125	0.446813
641.926566	0.447408
642.270955	0.446508
642.615292	0.446588
642.959576	0.444106
643.303809	0.444597
643.647990	0.443248
643.992118	0.443153
644.336195	0.445893
644.680219	0.443031
645.024192	0.443628
645.368112	0.436870
645.711981	0.435452
646.055797	0.430651
646.399562	0.432727
646.743274	0.424648
647.086935	0.421488
647.430544	0.421824
647.774101	0.419499
648.117606	0.419053
648.461059	0.418914
648.804460	0.420321
649.147810	0.424603
649.491108	0.425823
649.834354	0.426126
650.177548	0.430565
650.520690	0.435486
650.863781	0.435861
651.206820	0.434808
651.549807	0.438942
651.892742	0.441995
652.235626	0.441201
652.578458	0.441493
652.921238	0.446802
653.263967	0.444271
653.606644	0.447831
653.949269	0.446854
654.291843	0.450554
654.634365	0.446971
654.976836	0.449831
655.319255	0.449541
655.661622	0.450888
656.003938	0.450509
656.346203	0.453273
656.688416	0.450377
657.030577	0.453523
657.372687	0.455063
657.714746	0.455251
658.056753	0.452017
658.398708	0.455423
658.740612	0.456338
659.082465	0.452548
659.424266	0.452433
659.766016	0.451572
660.107715	0.453603
660.449362	0.453187
660.790958	0.452968
661.132503	0.453230
661.473996	0.450880
661.815438	0.451981
662.156829	0.451615
662.498168	0.451372
662.839456	0.452896
663.180693	0.450714
663.521879	0.450740
663.863013	0.451193
664.204097	0.449312
664.545129	0.446082
664.886110	0.446352
665.227040	0.443231
665.567918	0.445702
665.908746	0.444009
666.249522	0.443249
666.590248	0.444271
666.930922	0.442269
667.271545	0.441000
667.612118	0.440998
667.952639	0.442004
668.293109	0.440558
668.633528	0.443333
668.973896	0.442815
669.314213	0.443137
669.654480	0.444711
669.994695	0.444637
670.334859	0.445761
670.674973	0.445577
671.015035	0.445619
671.355047	0.445082
671.695008	0.445974
672.034918	0.447895
672.374777	0.447435
672.714585	0.448362
673.054342	0.448498
673.394049	0.448567
673.733705	0.446235
674.073310	0.446798
674.412864	0.449637
674.752368	0.449737
675.091820	0.449869
675.431223	0.454487
675.770574	0.453786
676.109875	0.456950
676.449125	0.457209
676.788324	0.459378
677.127473	0.464040
677.466571	0.464240
677.805619	0.465608
678.144616	0.466626
678.483562	0.468033
678.822458	0.470012
679.161303	0.471395
679.500098	0.471285
679.838842	0.473555
680.177535	0.472632
680.516179	0.471797
680.854771	0.470535
681.193314	0.463528
681.531805	0.455184
681.870247	0.443867
682.208638	0.436202
682.546978	0.435961
682.885268	0.436687
683.223508	0.443113
683.561697	0.446205
683.899836	0.449186
684.237925	0.452731
684.575963	0.454586
684.913951	0.457849
685.251889	0.453850
685.589776	0.455675
685.927614	0.458153
686.265401	0.452168
686.603137	0.453763
686.940824	0.447885
687.278460	0.446382
687.616046	0.445301
687.953582	0.440245
688.291068	0.441397
688.628504	0.437323
688.965889	0.439827
689.303224	0.443939
689.640510	0.447044
689.977745	0.453216
690.314930	0.460811
690.652065	0.465245
690.989150	0.472910
691.326185	0.479170
691.663170	0.483807
692.000105	0.490830
692.336990	0.497625
692.673825	0.499906
693.010610	0.506991
693.347345	0.512117
693.684030	0.513143
694.020665	0.518384
694.357251	0.526881
694.693786	0.526813
695.030272	0.530768
695.366707	0.534193
695.703093	0.537958
696.039429	0.534857
696.375716	0.537148
696.711952	0.539476
697.048139	0.541747
697.384276	0.543588
697.720363	0.541504
698.056400	0.540732
698.392388	0.546464
698.728326	0.549884
699.064214	0.552279
699.400053	0.553013
699.735842	0.556299
700.071581	0.559109
700.407270	0.561860
700.742910	0.564083
701.078501	0.571266
701.414042	0.571405
701.749533	0.573887
702.084974	0.582851
702.420366	0.575055
702.755709	0.583010
703.091002	0.590266
703.426246	0.584154
703.761440	0.589654
704.096584	0.594734
704.431679	0.591599
704.766725	0.594089
705.101721	0.595584
705.436668	0.591366
705.771565	0.598501
706.106413	0.595812
706.441212	0.589838
706.775961	0.589338
707.110661	0.592522
707.445311	0.588596
707.779913	0.585156
708.114465	0.583877
708.448967	0.580746
708.783421	0.572801
709.117825	0.568097
709.452180	0.567985
709.786485	0.561402
710.120742	0.552036
710.454949	0.553107
710.789107	0.545676
711.123216	0.537009
711.457275	0.538695
711.791286	0.529426
712.125247	0.528093
712.459159	0.539030
712.793023	0.531675
713.126837	0.535649
713.460602	0.535502
713.794318	0.545527
714.127985	0.543701
714.461602	0.553841
714.795171	0.557448
715.128691	0.565054
715.462162	0.572661
715.795584	0.578228
716.128957	0.581246
716.462281	0.587026
716.795556	0.591172
717.128782	0.595617
717.461960	0.605402
717.795088	0.603252
718.128167	0.609480
718.461198	0.618445
718.794180	0.619177
719.127113	0.622256
719.459997	0.625854
719.792833	0.631963
720.125619	0.633444
720.458357	0.638833
720.791046	0.638383
721.123686	0.641998
721.456278	0.648834
721.788821	0.646049
722.121315	0.650231
722.453761	0.654162
722.786158	0.651793
723.118506	0.648371
723.450805	0.656645
723.783056	0.652106
724.115259	0.650036
724.447412	0.649000
724.779518	0.650801
725.111574	0.649870
725.443582	0.644819
725.775542	0.646973
726.107453	0.639269
726.439315	0.639589
726.771129	0.637427
727.102895	0.631799
727.434612	0.624026
727.766281	0.622614
728.097901	0.621526
728.429473	0.621655
728.760996	0.619574
729.092471	0.619701
729.423897	0.623484
729.755276	0.622430
730.086606	0.623011
730.417887	0.617867
730.749120	0.608332
731.080305	0.598353
731.411442	0.595639
731.742530	0.600368
732.073570	0.598963
732.404562	0.591014
732.735506	0.592992
733.066401	0.598180
733.397249	0.606863
733.728048	0.618516
734.058798	0.630488
734.389501	0.641282
734.720156	0.651257
735.050762	0.658831
735.381320	0.659555
735.711831	0.668466
736.042293	0.673399
736.372707	0.668809
736.703073	0.673939
737.033391	0.676915
737.363661	0.673482
737.693883	0.668079
738.024056	0.667895
738.354182	0.667567
738.684260	0.657834
739.014290	0.652862
739.344272	0.654155
739.674207	0.647056
740.004093	0.646816
740.333931	0.648113
740.663722	0.647678
740.993464	0.648173
741.323159	0.651662
741.652806	0.657168
741.982405	0.662190
742.311956	0.665768
742.641460	0.668801
742.970915	0.672259
743.300323	0.679112
743.629683	0.686323
743.958996	0.687863
744.288260	0.692310
744.617477	0.697855
744.946647	0.699405
745.275768	0.704925
745.604842	0.704895
745.933869	0.714456
746.262847	0.715908
746.591778	0.708664
746.920662	0.715053
747.249498	0.721679
747.578286	0.712244
747.907027	0.707964
748.235720	0.709507
748.564365	0.704478
748.892963	0.703695
749.221514	0.706533
749.550017	0.712282
749.878473	0.711899
750.206881	0.717955
750.535242	0.719918
750.863555	0.719047
751.191821	0.719874
751.520039	0.723046
751.848210	0.728394
752.176334	0.721172
752.504411	0.720959
752.832440	0.728056
753.160421	0.731418
753.488356	0.730162
753.816243	0.727094
754.144082	0.735763
754.471875	0.738859
754.799620	0.735070
755.127318	0.736376
755.454969	0.735665
755.782572	0.735987
756.110129	0.741213
756.437638	0.743003
756.765100	0.740034
757.092515	0.738068
757.419882	0.737330
757.747203	0.741969
758.074477	0.741449
758.401703	0.737617
758.728882	0.733804
759.056014	0.733046
759.383099	0.731738
759.710138	0.732517
760.037129	0.730354
760.364073	0.723113
760.690970	0.725278
761.017820	0.731000
761.344623	0.727754
761.671379	0.718093
761.998088	0.706550
762.324751	0.684755
762.651366	0.643285
762.977935	0.577165
763.304456	0.525307
763.630931	0.515723
763.957359	0.554789
764.283740	0.598457
764.610074	0.625535
764.936362	0.655721
765.262602	0.682388
765.588796	0.703079
765.914943	0.721478
766.241044	0.739298
766.567097	0.745114
766.893104	0.754671
767.219064	0.762042
767.544978	0.767730
767.870845	0.781560
768.196665	0.785145
768.522438	0.781823
768.848165	0.783367
769.173846	0.792640
769.499479	0.797874
769.825066	0.801035
770.150607	0.805553
770.476101	0.800487
770.801548	0.803010
771.126949	0.813388
771.452303	0.817148
771.777611	0.816980
772.102872	0.815793
772.428087	0.820377
772.753256	0.823071
773.078378	0.825688
773.403453	0.835158
773.728482	0.839792
774.053465	0.832500
774.378401	0.836712
774.703291	0.844186
775.028135	0.844961
775.352932	0.847037
775.677683	0.848693
776.002388	0.849904
776.327046	0.848565
776.651658	0.852064
776.976224	0.855615
777.300743	0.856022
777.625216	0.857419
777.949643	0.858911
778.274024	0.860001
778.598359	0.860793
778.922647	0.859475
779.246889	0.859303
779.571086	0.864085
779.895236	0.866752
780.219339	0.864218
780.543397	0.860030
780.867409	0.859952
781.191374	0.861012
781.515294	0.862813
781.839167	0.862379
782.162995	0.865669
782.486776	0.861913
782.810511	0.862637
783.134201	0.866543
783.457844	0.864375
783.781441	0.867116
784.104993	0.873716
784.428498	0.873146
784.751958	0.869636
785.075372	0.870418
785.398739	0.875098
785.722061	0.871489
786.045337	0.867374
786.368568	0.872293
786.691752	0.875170
787.014891	0.860617
787.337983	0.851212
787.661030	0.844739
787.984031	0.826968
788.306987	0.813620
788.629897	0.816732
788.952760	0.820840
789.275579	0.824607
789.598351	0.839489
789.921078	0.852406
790.243759	0.854745
790.566395	0.859213
790.888984	0.867066
791.211529	0.872545
791.534027	0.874771
791.856480	0.876589
792.178888	0.881725
792.501249	0.884809
792.823566	0.885467
793.145836	0.885602
793.468062	0.888820
793.790241	0.886935
794.112375	0.885582
794.434464	0.881428
794.756507	0.880328
795.078505	0.879765
795.400457	0.874039
795.722364	0.863894
796.044226	0.856082
796.366042	0.855944
796.687812	0.858409
797.009538	0.854832
797.331218	0.857545
797.652852	0.862195
797.974442	0.867851
798.295986	0.866483
798.617484	0.869772
798.938938	0.873537
799.260346	0.878414
799.581709	0.881061
799.903026	0.883046
800.224299	0.883293
800.545526	0.886796
800.866708	0.891762
801.187845	0.895940
801.508936	0.895297
801.829983	0.893046
802.150984	0.894963
802.471940	0.900845
802.792851	0.899166
803.113717	0.901343
803.434538	0.898302
803.755314	0.901318
804.076045	0.902253
804.396731	0.902004
804.717372	0.903196
805.037967	0.903876
805.358518	0.902306
805.679024	0.898459
805.999485	0.899405
806.319901	0.899566
806.640272	0.901548
806.960598	0.900036
807.280879	0.895466
807.601115	0.894574
807.921306	0.899251
808.241453	0.898849
808.561554	0.896430
808.881611	0.897357
809.201623	0.898149
809.521590	0.899729
809.841513	0.900490
810.161390	0.898246
810.481223	0.900419
810.801011	0.903036
811.120755	0.905340
811.440453	0.904205
811.760107	0.903430
812.079716	0.902971
812.399281	0.907092
812.718801	0.908905
813.038276	0.908881
813.357707	0.908909
813.677093	0.905849
813.996434	0.909688
814.315731	0.910383
814.634983	0.913029
814.954191	0.910749
815.273354	0.907905
815.592473	0.904510
815.911547	0.903781
816.230577	0.901755
816.549562	0.899417
816.868502	0.900550
817.187399	0.896014
817.506250	0.890732
817.825058	0.893113
818.143821	0.889475
818.462539	0.884867
818.781213	0.876577
819.099843	0.866184
819.418429	0.850200
819.736970	0.833787
820.055466	0.814489
820.373919	0.789243
820.692327	0.758073
821.010691	0.722582
821.329011	0.647932
821.647286	0.535067
821.965517	0.423114
822.283704	0.381217
822.601847	0.382519
822.919945	0.418201
823.237999	0.450960
823.556010	0.496375
823.873976	0.551549
824.191897	0.601105
824.509775	0.642149
824.827609	0.687368
825.145398	0.710257
825.463144	0.711884
825.780845	0.694829
826.098502	0.676531
826.416116	0.632058
826.733685	0.589309
827.051210	0.580502
827.368692	0.595610
827.686129	0.631143
828.003522	0.683497
828.320872	0.730053
828.638177	0.772512
828.955439	0.806140
829.272656	0.826438
829.589830	0.844339
829.906960	0.858679
830.224046	0.870546
830.541088	0.881101
830.858086	0.884449
831.175041	0.891381
831.491952	0.890435
831.808819	0.887689
832.125642	0.880203
832.442421	0.865662
832.759157	0.845234
833.075849	0.800333
833.392497	0.737242
833.709101	0.696889
834.025662	0.707233
834.342179	0.737482
834.658653	0.776188
834.975083	0.810810
835.291469	0.837380
835.607811	0.859629
835.924110	0.874503
836.240366	0.890586
836.556578	0.904380
836.872746	0.911670
837.188871	0.918293
837.504952	0.922708
837.820990	0.926515
838.136984	0.929362
838.452935	0.933260
838.768842	0.934735
839.084706	0.926523
839.400526	0.903255
839.716303	0.863338
840.032037	0.841333
840.347727	0.845033
840.663373	0.862703
840.978977	0.884402
841.294537	0.906340
841.610054	0.920900
841.925527	0.929183
842.240957	0.935389
842.556344	0.942085
842.871687	0.948163
843.186987	0.952715
843.502244	0.951642
843.817458	0.954502
844.132629	0.956954
844.447756	0.962699
844.762840	0.962611
845.077881	0.961031
845.392879	0.962338
845.707833	0.963583
846.022745	0.967381
846.337613	0.966824
846.652438	0.966628
846.967221	0.967062
847.281960	0.966129
847.596656	0.970221
847.911309	0.967581
848.225919	0.969437
848.540485	0.970283
848.855009	0.970285
849.169490	0.971010
849.483928	0.970577
849.798323	0.970476
850.112675	0.971613
850.426984	0.970766
850.741251	0.971096
851.055474	0.972748
851.369654	0.970203
851.683792	0.971234
851.997887	0.971650
852.311938	0.971821
852.625947	0.971381
852.939914	0.970292
853.253837	0.971222
853.567718	0.973151
853.881555	0.972598
854.195350	0.970036
854.509103	0.971500
854.822812	0.971875
855.136479	0.972096
855.450103	0.971475
855.763685	0.970343
856.077224	0.970690
856.390720	0.971904
856.704173	0.971149
857.017584	0.969636
857.330953	0.968802
857.644278	0.969663
857.957561	0.969903
858.270802	0.970892
858.584000	0.970144
858.897155	0.968640
859.210268	0.970466
859.523339	0.970043
859.836367	0.972103
860.149352	0.972457
860.462295	0.971405
860.775195	0.971188
861.088054	0.970812
861.400869	0.971150
861.713642	0.972139
862.026373	0.972861
862.339062	0.973352
862.651708	0.969204
862.964312	0.969943
863.276873	0.971196
863.589392	0.970217
863.901869	0.968862
864.214303	0.966933
864.526696	0.966209
864.839045	0.965861
865.151353	0.963597
865.463619	0.964843
865.775842	0.964383
866.088023	0.965096
866.400162	0.964713
866.712258	0.964722
867.024313	0.964641
867.336325	0.966111
867.648296	0.965079
867.960224	0.964179
868.272110	0.963643
868.583954	0.966789
868.895755	0.965655
869.207515	0.964369
869.519233	0.962572
869.830909	0.963213
870.142542	0.964945
870.454134	0.965036
870.765684	0.962479
871.077191	0.960792
871.388657	0.961169
871.700081	0.960453
872.011463	0.960424
872.322803	0.960461
872.634101	0.958882
872.945357	0.957303
873.256571	0.956607
873.567744	0.956638
873.878874	0.956081
874.189963	0.954804
874.501010	0.953018
874.812015	0.952312
875.122979	0.953833
875.433900	0.955542
875.744780	0.957326
876.055618	0.953447
876.366415	0.952569
876.677169	0.952657
876.987882	0.954327
877.298554	0.953825
877.609183	0.950026
877.919771	0.948344
878.230317	0.946220
878.540822	0.944008
878.851285	0.938569
879.161707	0.931116
879.472087	0.920120
879.782425	0.904345
880.092722	0.872070
880.402977	0.820639
880.713191	0.763673
881.023363	0.706997
881.333494	0.674947
881.643583	0.646550
881.953631	0.645483
882.263637	0.675076
882.573602	0.713714
882.883526	0.737659
883.193408	0.760418
883.503248	0.781232
883.813048	0.808298
884.122806	0.837112
884.432522	0.858338
884.742197	0.877596
885.051831	0.887617
885.361424	0.896288
885.670975	0.909627
885.980485	0.917948
886.289954	0.924870
886.599382	0.929059
886.908768	0.932541
887.218113	0.938507
887.527417	0.942371
887.836680	0.945225
888.145901	0.948057
888.455082	0.949172
888.764221	0.954203
889.073319	0.956307
889.382376	0.956981
889.691392	0.956869
890.000366	0.956121
890.309300	0.957512
890.618193	0.956447
890.927044	0.954735
891.235855	0.955584
891.544625	0.954141
891.853353	0.955535
892.162041	0.952683
892.470687	0.947179
892.779293	0.941485
893.087858	0.937695
893.396381	0.931558
893.704864	0.918551
894.013306	0.896620
894.321707	0.871137
894.630068	0.856960
894.938387	0.852553
895.246665	0.854376
895.554903	0.865115
895.863100	0.877523
896.171256	0.893439
896.479371	0.912564
896.787446	0.925780
897.095480	0.929845
897.403473	0.932745
897.711425	0.936958
898.019336	0.944874
898.327207	0.946556
898.635038	0.949336
898.942827	0.948871
899.250576	0.952433
899.558284	0.955623
899.865952	0.956998
900.173579	0.958364
900.481165	0.960073
900.788711	0.962361
901.096216	0.964722
901.403681	0.963829
901.711105	0.966549
902.018489	0.967707
902.325832	0.965636
902.633135	0.964147
902.940397	0.958845
903.247619	0.948915
903.554800	0.923567
903.861941	0.886391
904.169041	0.852786
904.476101	0.838053
904.783121	0.837321
905.090100	0.853875
905.397039	0.874031
905.703938	0.893446
906.010796	0.912964
906.317614	0.928608
906.624391	0.939101
906.931129	0.949008
907.237826	0.955010
907.544483	0.962110
907.851099	0.966490
908.157675	0.969850
908.464211	0.972345
908.770707	0.974578
909.077163	0.977738
909.383578	0.976796
909.689954	0.977277
909.996289	0.978685
910.302584	0.980450
910.608839	0.982205
910.915054	0.980994
911.221229	0.980486
911.527363	0.980004
911.833458	0.979309
912.139513	0.979834
912.445527	0.976995
912.751502	0.976766
913.057436	0.973946
913.363331	0.973844
913.669186	0.969899
913.975000	0.964015
914.280775	0.958633
914.586510	0.953427
914.892205	0.939610
915.197859	0.921136
915.503475	0.893371
915.809050	0.877051
916.114585	0.872188
916.420081	0.869882
916.725536	0.866612
917.030952	0.874393
917.336328	0.885064
917.641665	0.899061
917.946961	0.914860
918.252218	0.924998
918.557435	0.933892
918.862612	0.941618
919.167750	0.946692
919.472848	0.951421
919.777906	0.956676
920.082925	0.961971
920.387904	0.966044
920.692843	0.966781
920.997743	0.967144
921.302603	0.971263
921.607423	0.973156
921.912204	0.974597
922.216946	0.974477
922.521647	0.975825
922.826310	0.977142
923.130932	0.980229
923.435516	0.980326
923.740059	0.981091
924.044564	0.980694
924.349028	0.982940
924.653454	0.985304
924.957840	0.987834
925.262186	0.985320
925.566493	0.986650
925.870761	0.986195
926.174989	0.988081
926.479178	0.988966
926.783328	0.990276
927.087438	0.989799
927.391509	0.988927
927.695541	0.991450
927.999533	0.991554
928.303486	0.990828
928.607400	0.992528
928.911275	0.991158
929.215110	0.991600
929.518906	0.992372
929.822663	0.992339
930.126381	0.991456
930.430060	0.991969
930.733699	0.991941
931.037299	0.991305
931.340861	0.992207
931.644383	0.991418
931.947866	0.990157
932.251309	0.991743
932.554714	0.991026
932.858080	0.992137
933.161407	0.992374
933.464694	0.992569
933.767943	0.990915
934.071153	0.992420
934.374323	0.993434
934.677455	0.993152
934.980548	0.992039
935.283602	0.991272
935.586617	0.992891
935.889593	0.992622
936.192530	0.992556
936.495428	0.991871
936.798287	0.991926
937.101108	0.992219
937.403890	0.990521
937.706632	0.991166
938.009336	0.988309
938.312002	0.988622
938.614628	0.986576
938.917216	0.986436
939.219765	0.984127
939.522275	0.986200
939.824747	0.984501
940.127179	0.985296
940.429573	0.986519
940.731929	0.986272
941.034246	0.986637
941.336524	0.987785
941.638763	0.987746
941.940964	0.987470
942.243126	0.988413
942.545250	0.989036
942.847335	0.989468
943.149381	0.990145
943.451389	0.990013
943.753359	0.989159
944.055290	0.992083
944.357182	0.991546
944.659036	0.989963
944.960851	0.990505
945.262628	0.991368
945.564367	0.992944
945.866067	0.991703
946.167729	0.991525
946.469352	0.991315
946.770937	0.989533
947.072484	0.992235
947.373992	0.991908
947.675462	0.991941
947.976893	0.992083
948.278286	0.991718
948.579641	0.992885
948.880958	0.991969
949.182236	0.992462
949.483476	0.992553
949.784678	0.992601
950.085841	0.992177
950.386967	0.993878
950.688054	0.991525
950.989103	0.992633
951.290114	0.990229
951.591087	0.991201
951.892021	0.991400
952.192917	0.991109
952.493776	0.989916
952.794596	0.988790
953.095378	0.988131
953.396122	0.989269
953.696828	0.989572
953.997496	0.991409
954.298126	0.991728
954.598718	0.992810
954.899272	0.992873
955.199788	0.991409
955.500266	0.993578
955.800706	0.994221
956.101108	0.995054
956.401472	0.995242
956.701798	0.994873
957.002087	0.995040
957.302337	0.994828
957.602550	0.996544
957.902724	0.996406
958.202861	0.995551
958.502960	0.996339
958.803022	0.995403
959.103045	0.996618
959.403031	0.996707
959.702979	0.995153
960.002889	0.996062
960.302762	0.994956
960.602596	0.996941
960.902393	0.996552
961.202153	0.997997
961.501875	0.998205
961.801559	0.996797
962.101205	0.996201
962.400814	0.996614
962.700385	0.997224
962.999918	0.996831
963.299414	0.996789
963.598873	0.996427
963.898293	0.996529
964.197677	0.996849
964.497022	0.996652
964.796331	0.998213
965.095601	0.996542
965.394835	0.997128
965.694030	0.998458
965.993189	0.998132
966.292309	0.996344
966.591393	0.999192
966.890439	0.996668
967.189447	0.997141
967.488419	0.998289
967.787353	0.997129
968.086249	0.996889
968.385108	0.998486
968.683930	0.996342
968.982714	0.998327
969.281462	0.998437
969.580172	0.997127
969.878844	0.998111
970.177480	0.997205
970.476078	0.998820
970.774639	0.996708
971.073162	0.997137
971.371649	0.997701
971.670098	0.997302
971.968510	0.998271
972.266885	0.995702
972.565223	0.997380
972.863524	0.996575
973.161788	0.996462
973.460014	0.998337
973.758204	0.997233
974.056356	0.997309
974.354471	0.995096
974.652550	0.997239
974.950591	0.997837
975.248595	0.996190
975.546563	0.996984
975.844493	0.997760
976.142386	0.997510
976.440243	0.997804
976.738062	0.997414
977.035845	0.998679
977.333590	0.997153
977.631299	0.998423
977.928971	0.996735
978.226606	0.997523
978.524204	0.996597
978.821765	0.998318
979.119290	0.997195
979.416777	0.996889
979.714228	0.997898
980.011642	0.996207
980.309020	0.997711
980.606360	0.997419
980.903664	0.998484
981.200931	0.996307
981.498162	0.996529
981.795356	0.996437
982.092513	0.995481
982.389633	0.996330
982.686717	0.992385
982.983764	0.992747
983.280775	0.992520
983.577749	0.991275
983.874686	0.991913
984.171587	0.992050
984.468451	0.995007
984.765279	0.996658
985.062070	0.993979
985.358824	0.996007
985.655543	0.996022
985.952224	0.996988
986.248869	0.997121
986.545478	0.997063
986.842050	0.997694
987.138586	0.995593
987.435086	0.997746
987.731549	0.998540
988.027975	0.998595
988.324366	0.998159
988.620719	0.998189
988.917037	0.996429
989.213318	0.998422
989.509563	0.999567
989.805772	0.998116
990.101944	0.998776
990.398080	0.997089
990.694180	0.997841
990.990244	0.997755
991.286271	0.998415
991.582262	0.997910
991.878217	0.998325
992.174136	0.999877
992.470019	0.998449
992.765865	0.997724
993.061676	0.999599
993.357450	0.998201
993.653188	0.996877
993.948890	0.997904
994.244556	0.998456
994.540186	0.997661
994.835780	0.996184
995.131337	0.997623
995.426859	0.997478
995.722345	0.998298
996.017795	0.996969
996.313208	0.996495
996.608586	0.996250
996.903928	0.998035
997.199234	0.995776
997.494504	0.997098
997.789738	0.996140
998.084936	0.997474
998.380099	0.997588
998.675225	0.998106
998.970316	0.998690
999.265371	0.998745
999.560390	0.998222
999.855373	0.998721
1000.150320	0.998395
1000.445232	0.997865
1000.740108	0.998206
1001.034948	0.998283
1001.329752	0.999953
1001.624521	0.998262
1001.919254	0.998272
1002.213951	0.998431
1002.508613	0.997836
1002.803239	0.999312
1003.097829	0.999615
1003.392384	0.999395
1003.686903	0.999048
1003.981386	0.998274
1004.275834	0.999317
1004.570246	0.998682
1004.864623	0.999802
1005.158964	0.999370
1005.453270	0.998809
1005.747540	0.997898
1006.041775	0.998423
1006.335974	1.000644
1006.630138	0.998570
1006.924266	0.998710
1007.218359	1.000984
1007.512416	0.999300
1007.806438	0.999734
1008.100425	0.999838
1008.394376	0.999065
1008.688292	0.999124
1008.982172	1.000527
1009.276017	1.000532
1009.569827	0.998906
1009.863602	0.999282
1010.157341	0.999525
1010.451045	0.998868
1010.744714	0.998556
1011.038347	1.000701
1011.331945	1.000162
1011.625508	0.998313
1011.919036	0.998060
1012.212528	0.998972
1012.505986	0.998425
1012.799408	0.998919
1013.092795	0.999872
1013.386147	0.998928
1013.679464	0.999238
1013.972745	0.998926
1014.265992	0.998038
1014.559204	1.000048
1014.852380	0.998213
1015.145521	0.999882
1015.438628	1.000191
1015.731699	0.999055
1016.024736	0.998751
1016.317737	0.999249
1016.610703	0.998732
1016.903635	0.999683
1017.196531	0.998406
1017.489393	0.999659
1017.782219	0.999276
1018.075011	0.999064
1018.367768	0.998445
1018.660490	1.000248
1018.953177	1.000248
1019.245829	1.000248
