Dividing Wavelength (nm)	Counts (n)	Blue Motor Position (mm): 0.000000	Red Motor Position (mm): 16.100000	
326.493990	1.002115
326.888308	1.002115
327.282561	1.002115
327.676750	1.000213
328.070874	1.000065
328.464933	1.000170
328.858929	0.998358
329.252859	1.000950
329.646726	0.999440
330.040528	1.000249
330.434265	1.000459
330.827938	1.001776
331.221547	1.001862
331.615091	1.000574
332.008571	1.000550
332.401986	1.000557
332.795338	1.000974
333.188625	0.998410
333.581847	0.999993
333.975006	1.001221
334.368100	0.999637
334.761129	1.001253
335.154095	1.001704
335.546996	0.997732
335.939833	0.993552
336.332606	0.994598
336.725315	0.994494
337.117960	0.995716
337.510540	0.993692
337.903056	0.994583
338.295508	0.993928
338.687896	0.994435
339.080220	0.994505
339.472480	0.994710
339.864676	0.993767
340.256807	0.995384
340.648875	0.995185
341.040879	0.994405
341.432818	0.993602
341.824694	0.994427
342.216506	0.995339
342.608253	0.995131
342.999937	0.995305
343.391557	0.994655
343.783113	0.994720
344.174605	0.994949
344.566033	0.994861
344.957397	0.993324
345.348697	0.994240
345.739934	0.994194
346.131106	0.994363
346.522215	0.993464
346.913260	0.993254
347.304241	0.993418
347.695159	0.994749
348.086012	0.993714
348.476802	0.993710
348.867528	0.993552
349.258191	0.992988
349.648789	0.993731
350.039324	0.993524
350.429796	0.994466
350.820203	0.995068
351.210548	0.993949
351.600828	0.993056
351.991045	0.994187
352.381198	0.993343
352.771288	0.993813
353.161314	0.993835
353.551276	0.995372
353.941175	0.993825
354.331010	0.994994
354.720782	0.993617
355.110490	0.994420
355.500135	0.994271
355.889717	0.994597
356.279235	0.993541
356.668689	0.994886
357.058080	0.994976
357.447408	0.995356
357.836672	0.994285
358.225873	0.993954
358.615010	0.994863
359.004084	0.994598
359.393095	0.994971
359.782043	0.994672
360.170927	0.995474
360.559748	0.994280
360.948505	0.994161
361.337199	0.993960
361.725830	0.994496
362.114398	0.993093
362.502903	0.994256
362.891344	0.994850
363.279722	0.992903
363.668037	0.995058
364.056289	0.994403
364.444478	0.995596
364.832603	0.995804
365.220665	0.994365
365.608665	0.994423
365.996601	0.993734
366.384474	0.994725
366.772284	0.995212
367.160031	0.992532
367.547715	0.992531
367.935336	0.993880
368.322893	0.993472
368.710388	0.992866
369.097820	0.994205
369.485189	0.993920
369.872495	0.992549
370.259738	0.992376
370.646918	0.995269
371.034035	0.994336
371.421090	0.994578
371.808081	0.993813
372.195010	0.993637
372.581875	0.994089
372.968678	0.994065
373.355418	0.992829
373.742096	0.993933
374.128710	0.995780
374.515262	0.993571
374.901751	0.994878
375.288177	0.994434
375.674540	0.994505
376.060841	0.993786
376.447079	0.995303
376.833254	0.993577
377.219367	0.994750
377.605417	0.995584
377.991404	0.993583
378.377329	0.993734
378.763191	0.994945
379.148991	0.995624
379.534727	0.995050
379.920402	0.995292
380.306013	0.994383
380.691563	0.995619
381.077049	0.994259
381.462474	0.994866
381.847835	0.994825
382.233134	0.994795
382.618371	0.994903
383.003545	0.994710
383.388657	0.994349
383.773706	0.994725
384.158693	0.995486
384.543618	0.994691
384.928480	0.996135
385.313280	0.994746
385.698017	0.995019
386.082692	0.995049
386.467305	0.995142
386.851856	0.994880
387.236344	0.994318
387.620770	0.993725
388.005133	0.994823
388.389435	0.996256
388.773674	0.995297
389.157851	0.994846
389.541965	0.993638
389.926018	0.994852
390.310008	0.996120
390.693936	0.994767
391.077802	0.995521
391.461606	0.994523
391.845348	0.995354
392.229027	0.996320
392.612645	0.994359
392.996200	0.995278
393.379694	0.995447
393.763125	0.995233
394.146494	0.995212
394.529801	0.994507
394.913047	0.994678
395.296230	0.993828
395.679351	0.994516
396.062410	0.993094
396.445408	0.993671
396.828343	0.992530
397.211217	0.990566
397.594028	0.991588
397.976778	0.989083
398.359466	0.988096
398.742092	0.985537
399.124656	0.983581
399.507158	0.981328
399.889598	0.979262
400.271977	0.977003
400.654294	0.974860
401.036549	0.971006
401.418742	0.967882
401.800874	0.961651
402.182944	0.957496
402.564952	0.952311
402.946898	0.949608
403.328783	0.943585
403.710606	0.940022
404.092367	0.932081
404.474067	0.926361
404.855705	0.920183
405.237282	0.917211
405.618797	0.907451
406.000250	0.899558
406.381642	0.891706
406.762972	0.885124
407.144240	0.878397
407.525447	0.870973
407.906593	0.861837
408.287677	0.852256
408.668700	0.846934
409.049661	0.835316
409.430560	0.826272
409.811399	0.820206
410.192176	0.804932
410.572891	0.799245
410.953545	0.786038
411.334138	0.782668
411.714669	0.770871
412.095139	0.767398
412.475547	0.750700
412.855894	0.743313
413.236180	0.733712
413.616405	0.728118
413.996568	0.714495
414.376670	0.708611
414.756711	0.704015
415.136691	0.693535
415.516609	0.679477
415.896466	0.670493
416.276262	0.658821
416.655997	0.653004
417.035670	0.631151
417.415283	0.618421
417.794834	0.614324
418.174324	0.611481
418.553753	0.611731
418.933121	0.590721
419.312428	0.578323
419.691674	0.576888
420.070859	0.561173
420.449983	0.561608
420.829045	0.547409
421.208047	0.550464
421.586988	0.539060
421.965867	0.532643
422.344686	0.517892
422.723444	0.525284
423.102141	0.535760
423.480777	0.507966
423.859352	0.523259
424.237866	0.498501
424.616319	0.496539
424.994712	0.484741
425.373044	0.491829
425.751314	0.477318
426.129524	0.490850
426.507673	0.473559
426.885762	0.464850
427.263789	0.467821
427.641756	0.476084
428.019662	0.465196
428.397508	0.462663
428.775292	0.465904
429.153016	0.456759
429.530679	0.462417
429.908282	0.453786
430.285824	0.463709
430.663305	0.441527
431.040726	0.461358
431.418086	0.462042
431.795385	0.452482
432.172624	0.450572
432.549802	0.452010
432.926920	0.449641
433.303977	0.449179
433.680974	0.445645
434.057910	0.444185
434.434786	0.443448
434.811601	0.445465
435.188355	0.428032
435.565050	0.436900
435.941683	0.438418
436.318257	0.422988
436.694770	0.423246
437.071222	0.421350
437.447614	0.425716
437.823946	0.431623
438.200218	0.421367
438.576429	0.430803
438.952580	0.424006
439.328670	0.420621
439.704700	0.426943
440.080670	0.428200
440.456580	0.409573
440.832429	0.417166
441.208218	0.428097
441.583947	0.417033
441.959616	0.416751
442.335224	0.422060
442.710773	0.412735
443.086261	0.411051
443.461689	0.424906
443.837057	0.414132
444.212365	0.404447
444.587612	0.411373
444.962800	0.401438
445.337927	0.402643
445.712995	0.429034
446.088002	0.391713
446.462949	0.401586
446.837837	0.405880
447.212664	0.395432
447.587431	0.386949
447.962139	0.357456
448.336786	0.316894
448.711374	0.327504
449.085901	0.370803
449.460369	0.375416
449.834776	0.379163
450.209124	0.358294
450.583412	0.351016
450.957640	0.343799
451.331808	0.354829
451.705917	0.378543
452.079965	0.383075
452.453954	0.371698
452.827883	0.378382
453.201752	0.373265
453.575562	0.384417
453.949311	0.372552
454.323001	0.378632
454.696632	0.375038
455.070202	0.367240
455.443713	0.359093
455.817164	0.354160
456.190556	0.349837
456.563888	0.346344
456.937160	0.344194
457.310373	0.361314
457.683526	0.360289
458.056619	0.366007
458.429653	0.367123
458.802628	0.370032
459.175542	0.364450
459.548398	0.347089
459.921194	0.339584
460.293930	0.339378
460.666607	0.317353
461.039224	0.305401
461.411782	0.301179
461.784280	0.300580
462.156719	0.304854
462.529099	0.309073
462.901419	0.324823
463.273680	0.329369
463.645882	0.329141
464.018024	0.334526
464.390106	0.327568
464.762130	0.312907
465.134094	0.295607
465.505999	0.264833
465.877845	0.235465
466.249631	0.222310
466.621358	0.229771
466.993026	0.243707
467.364634	0.249759
467.736184	0.258749
468.107674	0.267494
468.479105	0.266315
468.850477	0.273055
469.221790	0.279984
469.593043	0.290114
469.964238	0.294893
470.335373	0.294623
470.706449	0.292566
471.077467	0.293405
471.448425	0.255373
471.819324	0.231206
472.190164	0.230489
472.560945	0.259203
472.931667	0.281209
473.302330	0.285342
473.672934	0.297279
474.043479	0.285382
474.413965	0.287573
474.784393	0.290763
475.154761	0.286285
475.525070	0.282851
475.895321	0.288815
476.265513	0.283043
476.635645	0.278378
477.005719	0.278357
477.375734	0.274967
477.745691	0.268385
478.115588	0.264711
478.485427	0.258227
478.855207	0.245228
479.224928	0.227764
479.594591	0.215956
479.964194	0.219440
480.333739	0.220438
480.703226	0.222070
481.072653	0.220573
481.442022	0.216052
481.811333	0.212582
482.180584	0.216103
482.549777	0.221378
482.918912	0.224648
483.287988	0.224444
483.657005	0.224184
484.025964	0.230474
484.394864	0.227807
484.763706	0.228249
485.132489	0.233052
485.501213	0.234116
485.869879	0.232286
486.238487	0.235460
486.607036	0.233498
486.975527	0.237923
487.343959	0.233811
487.712333	0.232805
488.080648	0.234562
488.448905	0.233328
488.817104	0.235077
489.185244	0.229367
489.553326	0.225965
489.921350	0.216084
490.289315	0.198527
490.657222	0.193546
491.025070	0.194906
491.392861	0.196472
491.760593	0.202434
492.128267	0.208083
492.495883	0.213525
492.863440	0.219877
493.230939	0.226295
493.598380	0.227754
493.965763	0.229648
494.333088	0.232215
494.700354	0.233458
495.067563	0.232439
495.434713	0.236134
495.801805	0.233668
496.168839	0.235098
496.535815	0.236317
496.902733	0.236573
497.269593	0.238143
497.636395	0.235894
498.003139	0.236198
498.369825	0.239107
498.736453	0.235558
499.103023	0.236954
499.469535	0.236525
499.835989	0.236781
500.202385	0.237712
500.568723	0.240595
500.935003	0.235981
501.301226	0.240416
501.667390	0.234794
502.033497	0.232896
502.399546	0.235645
502.765537	0.237488
503.131470	0.236019
503.497345	0.232125
503.863163	0.241043
504.228923	0.234124
504.594625	0.232770
504.960269	0.238119
505.325856	0.233411
505.691385	0.237744
506.056856	0.234438
506.422270	0.233773
506.787625	0.236200
507.152924	0.233510
507.518164	0.234123
507.883347	0.235939
508.248472	0.237472
508.613540	0.232745
508.978550	0.235339
509.343503	0.235443
509.708398	0.233216
510.073236	0.231073
510.438016	0.230968
510.802738	0.231769
511.167403	0.230567
511.532010	0.232682
511.896561	0.228181
512.261053	0.227137
512.625488	0.229038
512.989866	0.229172
513.354186	0.229628
513.718449	0.231422
514.082655	0.227982
514.446803	0.229988
514.810894	0.227750
515.174927	0.230290
515.538904	0.229866
515.902822	0.226626
516.266684	0.229228
516.630488	0.230349
516.994235	0.229092
517.357925	0.227779
517.721558	0.226038
518.085133	0.225720
518.448651	0.225581
518.812112	0.227951
519.175516	0.227436
519.538863	0.225319
519.902152	0.226735
520.265385	0.223794
520.628560	0.225424
520.991678	0.225812
521.354739	0.224844
521.717743	0.225799
522.080690	0.226450
522.443580	0.223664
522.806413	0.224662
523.169189	0.223948
523.531908	0.222818
523.894569	0.226248
524.257174	0.226460
524.619722	0.223893
524.982213	0.225305
525.344647	0.223953
525.707025	0.225104
526.069345	0.223220
526.431608	0.224594
526.793815	0.222748
527.155964	0.226749
527.518057	0.225603
527.880093	0.226770
528.242072	0.225462
528.603995	0.227254
528.965860	0.229063
529.327669	0.227935
529.689421	0.228563
530.051117	0.229529
530.412755	0.227217
530.774337	0.229444
531.135862	0.229709
531.497331	0.229407
531.858743	0.232012
532.220098	0.229013
532.581396	0.231472
532.942638	0.231799
533.303824	0.232704
533.664953	0.232330
534.026025	0.234191
534.387040	0.232347
534.747999	0.232137
535.108902	0.231071
535.469748	0.235920
535.830537	0.233881
536.191270	0.234236
536.551947	0.234073
536.912567	0.234042
537.273131	0.235573
537.633638	0.235604
537.994089	0.236372
538.354483	0.237009
538.714821	0.234401
539.075103	0.233942
539.435328	0.234669
539.795497	0.238404
540.155609	0.235055
540.515665	0.233324
540.875665	0.238878
541.235609	0.237528
541.595496	0.237376
541.955328	0.233861
542.315102	0.237030
542.674821	0.237592
543.034483	0.237617
543.394090	0.237419
543.753640	0.239121
544.113134	0.234223
544.472571	0.237510
544.831953	0.234387
545.191278	0.238570
545.550548	0.238271
545.909761	0.234882
546.268918	0.235754
546.628019	0.233979
546.987064	0.236500
547.346053	0.238307
547.704986	0.235996
548.063863	0.236616
548.422684	0.236858
548.781449	0.238532
549.140158	0.236339
549.498811	0.239036
549.857408	0.241926
550.215949	0.236906
550.574434	0.240258
550.932864	0.238005
551.291237	0.236709
551.649555	0.238095
552.007817	0.237749
552.366022	0.238464
552.724173	0.238707
553.082267	0.239020
553.440305	0.235867
553.798288	0.240406
554.156215	0.237021
554.514086	0.237586
554.871902	0.240949
555.229661	0.240211
555.587365	0.240579
555.945014	0.243150
556.302606	0.239925
556.660143	0.242462
557.017625	0.238832
557.375050	0.241455
557.732421	0.238300
558.089735	0.240485
558.446994	0.240527
558.804197	0.239402
559.161345	0.239491
559.518437	0.243119
559.875474	0.240708
560.232455	0.240188
560.589381	0.241308
560.946251	0.241262
561.303065	0.238916
561.659825	0.240443
562.016528	0.241863
562.373177	0.244910
562.729770	0.242125
563.086307	0.244113
563.442789	0.241934
563.799216	0.244449
564.155587	0.243305
564.511904	0.244489
564.868164	0.244562
565.224370	0.244761
565.580520	0.246302
565.936615	0.246035
566.292654	0.249257
566.648638	0.246144
567.004567	0.246997
567.360441	0.247617
567.716260	0.249555
568.072023	0.247497
568.427732	0.248183
568.783385	0.250499
569.138982	0.248593
569.494525	0.248525
569.850013	0.251417
570.205445	0.249546
570.560823	0.252011
570.916145	0.254204
571.271412	0.252600
571.626625	0.253845
571.981782	0.254324
572.336884	0.255056
572.691931	0.254861
573.046923	0.256111
573.401860	0.257260
573.756743	0.259204
574.111570	0.258192
574.466342	0.258492
574.821059	0.257580
575.175722	0.260464
575.530330	0.260069
575.884882	0.260387
576.239380	0.262318
576.593823	0.263028
576.948211	0.262514
577.302544	0.265569
577.656823	0.265125
578.011047	0.265498
578.365216	0.266037
578.719330	0.268025
579.073389	0.268056
579.427394	0.269012
579.781344	0.269936
580.135239	0.271488
580.489080	0.271054
580.842866	0.273881
581.196597	0.273909
581.550273	0.272524
581.903895	0.273455
582.257463	0.271710
582.610975	0.275171
582.964434	0.274329
583.317837	0.277005
583.671186	0.277192
584.024481	0.277233
584.377721	0.279698
584.730906	0.280792
585.084037	0.279705
585.437113	0.281791
585.790135	0.280903
586.143103	0.283842
586.496016	0.284995
586.848874	0.282539
587.201679	0.283061
587.554428	0.286411
587.907124	0.285159
588.259765	0.286144
588.612352	0.286214
588.964884	0.290419
589.317362	0.289717
589.669786	0.289760
590.022155	0.288318
590.374470	0.287383
590.726731	0.289900
591.078937	0.294409
591.431090	0.290744
591.783188	0.294630
592.135232	0.295485
592.487222	0.295301
592.839157	0.293717
593.191038	0.295982
593.542866	0.297799
593.894639	0.301360
594.246358	0.299419
594.598022	0.298641
594.949633	0.302265
595.301190	0.302765
595.652692	0.302461
596.004141	0.298673
596.355535	0.306513
596.706876	0.306946
597.058162	0.309341
597.409395	0.307078
597.760573	0.304519
598.111698	0.307676
598.462768	0.308094
598.813785	0.309253
599.164748	0.310722
599.515657	0.310901
599.866511	0.314395
600.217312	0.309661
600.568060	0.314911
600.918753	0.311529
601.269392	0.312201
601.619978	0.315534
601.970510	0.313194
602.320988	0.313261
602.671412	0.310941
603.021783	0.313590
603.372100	0.314803
603.722363	0.314426
604.072572	0.315581
604.422728	0.315338
604.772830	0.317281
605.122878	0.316830
605.472872	0.317040
605.822813	0.315551
606.172701	0.318308
606.522534	0.315711
606.872314	0.315740
607.222041	0.316523
607.571714	0.314586
607.921333	0.315763
608.270899	0.316315
608.620411	0.313112
608.969870	0.316808
609.319276	0.316710
609.668627	0.316376
610.017926	0.314926
610.367171	0.313515
610.716362	0.314757
611.065500	0.314789
611.414585	0.314009
611.763616	0.313817
612.112594	0.314314
612.461518	0.313814
612.810389	0.311603
613.159207	0.313603
613.507971	0.315975
613.856682	0.311391
614.205340	0.313135
614.553945	0.310047
614.902496	0.313643
615.250994	0.311730
615.599439	0.312676
615.947830	0.311641
616.296169	0.312990
616.644454	0.312157
616.992686	0.312492
617.340864	0.309883
617.688990	0.314009
618.037063	0.310548
618.385082	0.312236
618.733048	0.309153
619.080961	0.311570
619.428821	0.311015
619.776628	0.310775
620.124382	0.312631
620.472083	0.312489
620.819731	0.312399
621.167326	0.315884
621.514868	0.315511
621.862357	0.319811
622.209793	0.319760
622.557176	0.321886
622.904506	0.322916
623.251783	0.325312
623.599007	0.327469
623.946179	0.327084
624.293297	0.329241
624.640363	0.332987
624.987376	0.333760
625.334336	0.336334
625.681243	0.338425
626.028097	0.338898
626.374899	0.339707
626.721647	0.339936
627.068343	0.343478
627.414987	0.344141
627.761577	0.346788
628.108115	0.344604
628.454600	0.350001
628.801032	0.347181
629.147412	0.349674
629.493739	0.349626
629.840014	0.352888
630.186236	0.350508
630.532405	0.355739
630.878521	0.353178
631.224585	0.355851
631.570597	0.359368
631.916556	0.357328
632.262462	0.357976
632.608316	0.359631
632.954117	0.360415
633.299866	0.361649
633.645562	0.362096
633.991206	0.366207
634.336797	0.369065
634.682336	0.371463
635.027823	0.373099
635.373257	0.373838
635.718639	0.377568
636.063968	0.376365
636.409245	0.382273
636.754470	0.382192
637.099642	0.384905
637.444762	0.388108
637.789829	0.387220
638.134845	0.390737
638.479808	0.391628
638.824719	0.391427
639.169577	0.395396
639.514383	0.394564
639.859137	0.398905
640.203839	0.398931
640.548489	0.399277
640.893086	0.400223
641.237632	0.402201
641.582125	0.400721
641.926566	0.401679
642.270955	0.402179
642.615292	0.402988
642.959576	0.401589
643.303809	0.402459
643.647990	0.401677
643.992118	0.402848
644.336195	0.406294
644.680219	0.404522
645.024192	0.405222
645.368112	0.398506
645.711981	0.397338
646.055797	0.393113
646.399562	0.395457
646.743274	0.387618
647.086935	0.385117
647.430544	0.384728
647.774101	0.383890
648.117606	0.383499
648.461059	0.383890
648.804460	0.386137
649.147810	0.391952
649.491108	0.393248
649.834354	0.395171
650.177548	0.399837
650.520690	0.405830
650.863781	0.407089
651.206820	0.406307
651.549807	0.410629
651.892742	0.414627
652.235626	0.414250
652.578458	0.415266
652.921238	0.421185
653.263967	0.419797
653.606644	0.423093
653.949269	0.422989
654.291843	0.426702
654.634365	0.423273
654.976836	0.426511
655.319255	0.426752
655.661622	0.428805
656.003938	0.428123
656.346203	0.431689
656.688416	0.428862
657.030577	0.432507
657.372687	0.434336
657.714746	0.435819
658.056753	0.432348
658.398708	0.435674
658.740612	0.437193
659.082465	0.433165
659.424266	0.434451
659.766016	0.432967
660.107715	0.436100
660.449362	0.435116
660.790958	0.435422
661.132503	0.436757
661.473996	0.433980
661.815438	0.435063
662.156829	0.435284
662.498168	0.435703
662.839456	0.437215
663.180693	0.434679
663.521879	0.435047
663.863013	0.435610
664.204097	0.434614
664.545129	0.430933
664.886110	0.431895
665.227040	0.428885
665.567918	0.431609
665.908746	0.429521
666.249522	0.428893
666.590248	0.430043
666.930922	0.428451
667.271545	0.426869
667.612118	0.426957
667.952639	0.428735
668.293109	0.427726
668.633528	0.430928
668.973896	0.429982
669.314213	0.431011
669.654480	0.432110
669.994695	0.432818
670.334859	0.433750
670.674973	0.433815
671.015035	0.433919
671.355047	0.433688
671.695008	0.434775
672.034918	0.437539
672.374777	0.436192
672.714585	0.437162
673.054342	0.437274
673.394049	0.437352
673.733705	0.434970
674.073310	0.435991
674.412864	0.439022
674.752368	0.439604
675.091820	0.439925
675.431223	0.444063
675.770574	0.444092
676.109875	0.446708
676.449125	0.447326
676.788324	0.449006
677.127473	0.454776
677.466571	0.454084
677.805619	0.456083
678.144616	0.457194
678.483562	0.458947
678.822458	0.461705
679.161303	0.463036
679.500098	0.463246
679.838842	0.464836
680.177535	0.464194
680.516179	0.462481
680.854771	0.461759
681.193314	0.455672
681.531805	0.446869
681.870247	0.435349
682.208638	0.427433
682.546978	0.426082
682.885268	0.428221
683.223508	0.434454
683.561697	0.437879
683.899836	0.440998
684.237925	0.444319
684.575963	0.446546
684.913951	0.449922
685.251889	0.445526
685.589776	0.447470
685.927614	0.450433
686.265401	0.444445
686.603137	0.445962
686.940824	0.439663
687.278460	0.437981
687.616046	0.437048
687.953582	0.431362
688.291068	0.433753
688.628504	0.429157
688.965889	0.431540
689.303224	0.435206
689.640510	0.439154
689.977745	0.445428
690.314930	0.453206
690.652065	0.457833
690.989150	0.465403
691.326185	0.471641
691.663170	0.476130
692.000105	0.483371
692.336990	0.490789
692.673825	0.492893
693.010610	0.500053
693.347345	0.505515
693.684030	0.506593
694.020665	0.511453
694.357251	0.520326
694.693786	0.519918
695.030272	0.524641
695.366707	0.527415
695.703093	0.531187
696.039429	0.529267
696.375716	0.530976
696.711952	0.533245
697.048139	0.535262
697.384276	0.537526
697.720363	0.535223
698.056400	0.534581
698.392388	0.540720
698.728326	0.543195
699.064214	0.546106
699.400053	0.546958
699.735842	0.550772
700.071581	0.553317
700.407270	0.555976
700.742910	0.558884
701.078501	0.565154
701.414042	0.565051
701.749533	0.568726
702.084974	0.576938
702.420366	0.569481
702.755709	0.577442
703.091002	0.585208
703.426246	0.578092
703.761440	0.584663
704.096584	0.589296
704.431679	0.586035
704.766725	0.587595
705.101721	0.589852
705.436668	0.585416
705.771565	0.593088
706.106413	0.589734
706.441212	0.584926
706.775961	0.583515
707.110661	0.586770
707.445311	0.582791
707.779913	0.580268
708.114465	0.578338
708.448967	0.575628
708.783421	0.567792
709.117825	0.561940
709.452180	0.561811
709.786485	0.555517
710.120742	0.545678
710.454949	0.547868
710.789107	0.539733
711.123216	0.530374
711.457275	0.532450
711.791286	0.523348
712.125247	0.521926
712.459159	0.533039
712.793023	0.525394
713.126837	0.530378
713.460602	0.530398
713.794318	0.539509
714.127985	0.537986
714.461602	0.548522
714.795171	0.551167
715.128691	0.559384
715.462162	0.567280
715.795584	0.572190
716.128957	0.575914
716.462281	0.581793
716.795556	0.585770
717.128782	0.590169
717.461960	0.599885
717.795088	0.598909
718.128167	0.604547
718.461198	0.613554
718.794180	0.613858
719.127113	0.616748
719.459997	0.620287
719.792833	0.627146
720.125619	0.627991
720.458357	0.633711
720.791046	0.633217
721.123686	0.637128
721.456278	0.644591
721.788821	0.641202
722.121315	0.644621
722.453761	0.649763
722.786158	0.647214
723.118506	0.643703
723.450805	0.652274
723.783056	0.647618
724.115259	0.645320
724.447412	0.644468
724.779518	0.645863
725.111574	0.645583
725.443582	0.640410
725.775542	0.643160
726.107453	0.634641
726.439315	0.634465
726.771129	0.632977
727.102895	0.625801
727.434612	0.618974
727.766281	0.617269
728.097901	0.616609
728.429473	0.616566
728.760996	0.614188
729.092471	0.614493
729.423897	0.617805
729.755276	0.618168
730.086606	0.617533
730.417887	0.612813
730.749120	0.602622
731.080305	0.593799
731.411442	0.589449
731.742530	0.594811
732.073570	0.593946
732.404562	0.586849
732.735506	0.587510
733.066401	0.592523
733.397249	0.601684
733.728048	0.613014
734.058798	0.625692
734.389501	0.635885
734.720156	0.646072
735.050762	0.653567
735.381320	0.654862
735.711831	0.663708
736.042293	0.668561
736.372707	0.664278
736.703073	0.670172
737.033391	0.672141
737.363661	0.668802
737.693883	0.663402
738.024056	0.663466
738.354182	0.663504
738.684260	0.652112
739.014290	0.648313
739.344272	0.648957
739.674207	0.642597
740.004093	0.641875
740.333931	0.642793
740.663722	0.642480
740.993464	0.643448
741.323159	0.646997
741.652806	0.651873
741.982405	0.657022
742.311956	0.661863
742.641460	0.663441
742.970915	0.667613
743.300323	0.674460
743.629683	0.681486
743.958996	0.683215
744.288260	0.687227
744.617477	0.693898
744.946647	0.694651
745.275768	0.701122
745.604842	0.700174
745.933869	0.710242
746.262847	0.711558
746.591778	0.704112
746.920662	0.710967
747.249498	0.717298
747.578286	0.708046
747.907027	0.703323
748.235720	0.704745
748.564365	0.699979
748.892963	0.699482
749.221514	0.702783
749.550017	0.707201
749.878473	0.707601
750.206881	0.714126
750.535242	0.715176
750.863555	0.714242
751.191821	0.715508
751.520039	0.719100
751.848210	0.723917
752.176334	0.716668
752.504411	0.715693
752.832440	0.723697
753.160421	0.727118
753.488356	0.725899
753.816243	0.723595
754.144082	0.731919
754.471875	0.734984
754.799620	0.730057
755.127318	0.732128
755.454969	0.732106
755.782572	0.731748
756.110129	0.736178
756.437638	0.739543
756.765100	0.735403
757.092515	0.733845
757.419882	0.732702
757.747203	0.737222
758.074477	0.736770
758.401703	0.734204
758.728882	0.729105
759.056014	0.727848
759.383099	0.726953
759.710138	0.728653
760.037129	0.724953
760.364073	0.718001
760.690970	0.720974
761.017820	0.726830
761.344623	0.722544
761.671379	0.713361
761.998088	0.701863
762.324751	0.679022
762.651366	0.637087
762.977935	0.569840
763.304456	0.517817
763.630931	0.508900
763.957359	0.547804
764.283740	0.592311
764.610074	0.620314
764.936362	0.649716
765.262602	0.676844
765.588796	0.698733
765.914943	0.717043
766.241044	0.733634
766.567097	0.741069
766.893104	0.750351
767.219064	0.757692
767.544978	0.763782
767.870845	0.777121
768.196665	0.781711
768.522438	0.778822
768.848165	0.781082
769.173846	0.790259
769.499479	0.794264
769.825066	0.796542
770.150607	0.802400
770.476101	0.798089
770.801548	0.798822
771.126949	0.809975
771.452303	0.813202
771.777611	0.813804
772.102872	0.811911
772.428087	0.817504
772.753256	0.820742
773.078378	0.822964
773.403453	0.832075
773.728482	0.835493
774.053465	0.829743
774.378401	0.833206
774.703291	0.841620
775.028135	0.841226
775.352932	0.843151
775.677683	0.846046
776.002388	0.846527
776.327046	0.844977
776.651658	0.848843
776.976224	0.852127
777.300743	0.852844
777.625216	0.854241
777.949643	0.857023
778.274024	0.856546
778.598359	0.858313
778.922647	0.857318
779.246889	0.857988
779.571086	0.860547
779.895236	0.864130
780.219339	0.860418
780.543397	0.856982
780.867409	0.856730
781.191374	0.858237
781.515294	0.860685
781.839167	0.857097
782.162995	0.862771
782.486776	0.858955
782.810511	0.859358
783.134201	0.864147
783.457844	0.860731
783.781441	0.863613
784.104993	0.870155
784.428498	0.871759
784.751958	0.865601
785.075372	0.868775
785.398739	0.872407
785.722061	0.868942
786.045337	0.864148
786.368568	0.869270
786.691752	0.871045
787.014891	0.856810
787.337983	0.849116
787.661030	0.840202
787.984031	0.823156
788.306987	0.810737
788.629897	0.812480
788.952760	0.817138
789.275579	0.820347
789.598351	0.835770
789.921078	0.849454
790.243759	0.851037
790.566395	0.855448
790.888984	0.863254
791.211529	0.867681
791.534027	0.871116
791.856480	0.873552
792.178888	0.879023
792.501249	0.881010
792.823566	0.881707
793.145836	0.882394
793.468062	0.884917
793.790241	0.884780
794.112375	0.881950
794.434464	0.878292
794.756507	0.877208
795.078505	0.876538
795.400457	0.871137
795.722364	0.860191
796.044226	0.852596
796.366042	0.851396
796.687812	0.855298
797.009538	0.851596
797.331218	0.853449
797.652852	0.860197
797.974442	0.864425
798.295986	0.863398
798.617484	0.866410
798.938938	0.870668
799.260346	0.875365
799.581709	0.877675
799.903026	0.879412
800.224299	0.880818
800.545526	0.883824
800.866708	0.888556
801.187845	0.892278
801.508936	0.892412
801.829983	0.890091
802.150984	0.892939
802.471940	0.897462
802.792851	0.897489
803.113717	0.897519
803.434538	0.896102
803.755314	0.898387
804.076045	0.899165
804.396731	0.899879
804.717372	0.900594
805.037967	0.901627
805.358518	0.898606
805.679024	0.896395
805.999485	0.896879
806.319901	0.897082
806.640272	0.897523
806.960598	0.896634
807.280879	0.893834
807.601115	0.891940
807.921306	0.895551
808.241453	0.896453
808.561554	0.894057
808.881611	0.894149
809.201623	0.895722
809.521590	0.896210
809.841513	0.896350
810.161390	0.896272
810.481223	0.897384
810.801011	0.900812
811.120755	0.902535
811.440453	0.900843
811.760107	0.900815
812.079716	0.900147
812.399281	0.904125
812.718801	0.906135
813.038276	0.907781
813.357707	0.905675
813.677093	0.903579
813.996434	0.907431
814.315731	0.908082
814.634983	0.908896
814.954191	0.907871
815.273354	0.905558
815.592473	0.900925
815.911547	0.901782
816.230577	0.898214
816.549562	0.894639
816.868502	0.896534
817.187399	0.894241
817.506250	0.887836
817.825058	0.889435
818.143821	0.885669
818.462539	0.881080
818.781213	0.872908
819.099843	0.861347
819.418429	0.846851
819.736970	0.829403
820.055466	0.809097
820.373919	0.783096
820.692327	0.750029
821.010691	0.715265
821.329011	0.637705
821.647286	0.522515
821.965517	0.407732
822.283704	0.365010
822.601847	0.366113
822.919945	0.402012
823.237999	0.435455
823.556010	0.482949
823.873976	0.538589
824.191897	0.589504
824.509775	0.632459
824.827609	0.678107
825.145398	0.700830
825.463144	0.702878
825.780845	0.686199
826.098502	0.667279
826.416116	0.621612
826.733685	0.577352
827.051210	0.569277
827.368692	0.583620
827.686129	0.621742
828.003522	0.674653
828.320872	0.721817
828.638177	0.766405
828.955439	0.799320
829.272656	0.821068
829.589830	0.838873
829.906960	0.853476
830.224046	0.866692
830.541088	0.876231
830.858086	0.880875
831.175041	0.887664
831.491952	0.885883
831.808819	0.882941
832.125642	0.876811
832.442421	0.862601
832.759157	0.839162
833.075849	0.793791
833.392497	0.729253
833.709101	0.689008
834.025662	0.697713
834.342179	0.729868
834.658653	0.769425
834.975083	0.804953
835.291469	0.831791
835.607811	0.854225
835.924110	0.870212
836.240366	0.887577
836.556578	0.900955
836.872746	0.907940
837.188871	0.914717
837.504952	0.920363
837.820990	0.924114
838.136984	0.927790
838.452935	0.930231
838.768842	0.931842
839.084706	0.924432
839.400526	0.898641
839.716303	0.858818
840.032037	0.835551
840.347727	0.839856
840.663373	0.857158
840.978977	0.879386
841.294537	0.902790
841.610054	0.917966
841.925527	0.926477
842.240957	0.932830
842.556344	0.940149
842.871687	0.946021
843.186987	0.949542
843.502244	0.950251
843.817458	0.951992
844.132629	0.955985
844.447756	0.960843
844.762840	0.961320
845.077881	0.960508
845.392879	0.960274
845.707833	0.963151
846.022745	0.965295
846.337613	0.964771
846.652438	0.964875
846.967221	0.964245
847.281960	0.965694
847.596656	0.968382
847.911309	0.966417
848.225919	0.968505
848.540485	0.968842
848.855009	0.969383
849.169490	0.969111
849.483928	0.969791
849.798323	0.969360
850.112675	0.970183
850.426984	0.969918
850.741251	0.970754
851.055474	0.970133
851.369654	0.968811
851.683792	0.970517
851.997887	0.968991
852.311938	0.969586
852.625947	0.969936
852.939914	0.968608
853.253837	0.969800
853.567718	0.970551
853.881555	0.971678
854.195350	0.967663
854.509103	0.969784
854.822812	0.970433
855.136479	0.970242
855.450103	0.968730
855.763685	0.967989
856.077224	0.968963
856.390720	0.970517
856.704173	0.969902
857.017584	0.968402
857.330953	0.968072
857.644278	0.968372
857.957561	0.968289
858.270802	0.968445
858.584000	0.967605
858.897155	0.968164
859.210268	0.967095
859.523339	0.968503
859.836367	0.970486
860.149352	0.971398
860.462295	0.968742
860.775195	0.969489
861.088054	0.969151
861.400869	0.970291
861.713642	0.970661
862.026373	0.970116
862.339062	0.970497
862.651708	0.967503
862.964312	0.968249
863.276873	0.969427
863.589392	0.967835
863.901869	0.967033
864.214303	0.965602
864.526696	0.964937
864.839045	0.964244
865.151353	0.962309
865.463619	0.962818
865.775842	0.963023
866.088023	0.962008
866.400162	0.961418
866.712258	0.962507
867.024313	0.963098
867.336325	0.964047
867.648296	0.963173
867.960224	0.962370
868.272110	0.961574
868.583954	0.963557
868.895755	0.963237
869.207515	0.961858
869.519233	0.959853
869.830909	0.960872
870.142542	0.962131
870.454134	0.962034
870.765684	0.960179
871.077191	0.958340
871.388657	0.959397
871.700081	0.957610
872.011463	0.958694
872.322803	0.958002
872.634101	0.956529
872.945357	0.953713
873.256571	0.952710
873.567744	0.952798
873.878874	0.954414
874.189963	0.950925
874.501010	0.952215
874.812015	0.949974
875.122979	0.952299
875.433900	0.952405
875.744780	0.953337
876.055618	0.950918
876.366415	0.950338
876.677169	0.950759
876.987882	0.950708
877.298554	0.951052
877.609183	0.948268
877.919771	0.944699
878.230317	0.941814
878.540822	0.940318
878.851285	0.935184
879.161707	0.926325
879.472087	0.915326
879.782425	0.898941
880.092722	0.863836
880.402977	0.811663
880.713191	0.750920
881.023363	0.691176
881.333494	0.656556
881.643583	0.629439
881.953631	0.628612
882.263637	0.657158
882.573602	0.697288
882.883526	0.722863
883.193408	0.746768
883.503248	0.769891
883.813048	0.796221
884.122806	0.826269
884.432522	0.849341
884.742197	0.869661
885.051831	0.880954
885.361424	0.891262
885.670975	0.902779
885.980485	0.913712
886.289954	0.919176
886.599382	0.924455
886.908768	0.928364
887.218113	0.933815
887.527417	0.939143
887.836680	0.941720
888.145901	0.943525
888.455082	0.946012
888.764221	0.951283
889.073319	0.952914
889.382376	0.952692
889.691392	0.952962
890.000366	0.952697
890.309300	0.953846
890.618193	0.953433
890.927044	0.950630
891.235855	0.952521
891.544625	0.950612
891.853353	0.952296
892.162041	0.949482
892.470687	0.943271
892.779293	0.937474
893.087858	0.933227
893.396381	0.925670
893.704864	0.913918
894.013306	0.889095
894.321707	0.861413
894.630068	0.847133
894.938387	0.842428
895.246665	0.843887
895.554903	0.855670
895.863100	0.869481
896.171256	0.886504
896.479371	0.904949
896.787446	0.918660
897.095480	0.925097
897.403473	0.927675
897.711425	0.933100
898.019336	0.939525
898.327207	0.943191
898.635038	0.944925
898.942827	0.944965
899.250576	0.948484
899.558284	0.952495
899.865952	0.954116
900.173579	0.955255
900.481165	0.954398
900.788711	0.960025
901.096216	0.960666
901.403681	0.960649
901.711105	0.963046
902.018489	0.963606
902.325832	0.962124
902.633135	0.961468
902.940397	0.955464
903.247619	0.943416
903.554800	0.917690
903.861941	0.878010
904.169041	0.842096
904.476101	0.824225
904.783121	0.825298
905.090100	0.842020
905.397039	0.863825
905.703938	0.884816
906.010796	0.906802
906.317614	0.923124
906.624391	0.933377
906.931129	0.943051
907.237826	0.951670
907.544483	0.959930
907.851099	0.962279
908.157675	0.966910
908.464211	0.970631
908.770707	0.972414
909.077163	0.973751
909.383578	0.975688
909.689954	0.974893
909.996289	0.975932
910.302584	0.978055
910.608839	0.980691
910.915054	0.978372
911.221229	0.978093
911.527363	0.977256
911.833458	0.976959
912.139513	0.976893
912.445527	0.975417
912.751502	0.974558
913.057436	0.973126
913.363331	0.968817
913.669186	0.966545
913.975000	0.961718
914.280775	0.954611
914.586510	0.947973
914.892205	0.934378
915.197859	0.913218
915.503475	0.885747
915.809050	0.866151
916.114585	0.860261
916.420081	0.858499
916.725536	0.854913
917.030952	0.863506
917.336328	0.875654
917.641665	0.891740
917.946961	0.907084
918.252218	0.917729
918.557435	0.927263
918.862612	0.936241
919.167750	0.942016
919.472848	0.946061
919.777906	0.952085
920.082925	0.957330
920.387904	0.961945
920.692843	0.963562
920.997743	0.963319
921.302603	0.967801
921.607423	0.968641
921.912204	0.971827
922.216946	0.973172
922.521647	0.973258
922.826310	0.975326
923.130932	0.976871
923.435516	0.978492
923.740059	0.979419
924.044564	0.979607
924.349028	0.980526
924.653454	0.983135
924.957840	0.985371
925.262186	0.984335
925.566493	0.983629
925.870761	0.985221
926.174989	0.986655
926.479178	0.988655
926.783328	0.989036
927.087438	0.988427
927.391509	0.989044
927.695541	0.990414
927.999533	0.989882
928.303486	0.989839
928.607400	0.992025
928.911275	0.989898
929.215110	0.990867
929.518906	0.991331
929.822663	0.990163
930.126381	0.991201
930.430060	0.990646
930.733699	0.990221
931.037299	0.989569
931.340861	0.990819
931.644383	0.990015
931.947866	0.988526
932.251309	0.991013
932.554714	0.990015
932.858080	0.989806
933.161407	0.990367
933.464694	0.990977
933.767943	0.990055
934.071153	0.991368
934.374323	0.991416
934.677455	0.991168
934.980548	0.992294
935.283602	0.990513
935.586617	0.990995
935.889593	0.991765
936.192530	0.991049
936.495428	0.991659
936.798287	0.991201
937.101108	0.990979
937.403890	0.988625
937.706632	0.989658
938.009336	0.988155
938.312002	0.985789
938.614628	0.984553
938.917216	0.983605
939.219765	0.982247
939.522275	0.983849
939.824747	0.982491
940.127179	0.983377
940.429573	0.984792
940.731929	0.983770
941.034246	0.984609
941.336524	0.985462
941.638763	0.985947
941.940964	0.986372
942.243126	0.986224
942.545250	0.987910
942.847335	0.988306
943.149381	0.988657
943.451389	0.988415
943.753359	0.988839
944.055290	0.991101
944.357182	0.990459
944.659036	0.987805
944.960851	0.989500
945.262628	0.990558
945.564367	0.990707
945.866067	0.989688
946.167729	0.990833
946.469352	0.989600
946.770937	0.989158
947.072484	0.990466
947.373992	0.990887
947.675462	0.990368
947.976893	0.991131
948.278286	0.990610
948.579641	0.990832
948.880958	0.990608
949.182236	0.990915
949.483476	0.991608
949.784678	0.990067
950.085841	0.992896
950.386967	0.989968
950.688054	0.990832
950.989103	0.991588
951.290114	0.989791
951.591087	0.989729
951.892021	0.990504
952.192917	0.990445
952.493776	0.989368
952.794596	0.987273
953.095378	0.988568
953.396122	0.987411
953.696828	0.986866
953.997496	0.990343
954.298126	0.989546
954.598718	0.991562
954.899272	0.991306
955.199788	0.990218
955.500266	0.992859
955.800706	0.992518
956.101108	0.993974
956.401472	0.993901
956.701798	0.994483
957.002087	0.993447
957.302337	0.994056
957.602550	0.995490
957.902724	0.996647
958.202861	0.995375
958.502960	0.995246
958.803022	0.994628
959.103045	0.995614
959.403031	0.995685
959.702979	0.994857
960.002889	0.995665
960.302762	0.995774
960.602596	0.995681
960.902393	0.995963
961.202153	0.996009
961.501875	0.996848
961.801559	0.995012
962.101205	0.996388
962.400814	0.997622
962.700385	0.997304
962.999918	0.996103
963.299414	0.997514
963.598873	0.995795
963.898293	0.996551
964.197677	0.996299
964.497022	0.996586
964.796331	0.998395
965.095601	0.997175
965.394835	0.996966
965.694030	0.998504
965.993189	0.998687
966.292309	0.995209
966.591393	0.998030
966.890439	0.997762
967.189447	0.997403
967.488419	0.997148
967.787353	0.995671
968.086249	0.995770
968.385108	0.998446
968.683930	0.996905
968.982714	0.997762
969.281462	0.997534
969.580172	0.996382
969.878844	0.997891
970.177480	0.997469
970.476078	0.997522
970.774639	0.995718
971.073162	0.997274
971.371649	0.997171
971.670098	0.995985
971.968510	0.998697
972.266885	0.996913
972.565223	0.996389
972.863524	0.996198
973.161788	0.996995
973.460014	0.997470
973.758204	0.995689
974.056356	0.996022
974.354471	0.995887
974.652550	0.996515
974.950591	0.996819
975.248595	0.997165
975.546563	0.996749
975.844493	0.999084
976.142386	0.996368
976.440243	0.998313
976.738062	0.996602
977.035845	0.998140
977.333590	0.997644
977.631299	0.998453
977.928971	0.996896
978.226606	0.996566
978.524204	0.996493
978.821765	0.999117
979.119290	0.997029
979.416777	0.997044
979.714228	0.997008
980.011642	0.996710
980.309020	0.998071
980.606360	0.997858
980.903664	0.997372
981.200931	0.996774
981.498162	0.995190
981.795356	0.995040
982.092513	0.994734
982.389633	0.993446
982.686717	0.991942
982.983764	0.991221
983.280775	0.990454
983.577749	0.990132
983.874686	0.991281
984.171587	0.992364
984.468451	0.994771
984.765279	0.995790
985.062070	0.993413
985.358824	0.995854
985.655543	0.995202
985.952224	0.996600
986.248869	0.995552
986.545478	0.996828
986.842050	0.999452
987.138586	0.995939
987.435086	0.997330
987.731549	0.997993
988.027975	0.997517
988.324366	0.997744
988.620719	0.997840
988.917037	0.996200
989.213318	0.999519
989.509563	0.999345
989.805772	0.998710
990.101944	0.998330
990.398080	0.997838
990.694180	0.997973
990.990244	0.997955
991.286271	0.998745
991.582262	0.997863
991.878217	0.997360
992.174136	0.999605
992.470019	0.998965
992.765865	0.998850
993.061676	0.999146
993.357450	0.998987
993.653188	0.997956
993.948890	0.997864
994.244556	0.998766
994.540186	0.997477
994.835780	0.996710
995.131337	0.997530
995.426859	0.997761
995.722345	0.997763
996.017795	0.996890
996.313208	0.996612
996.608586	0.995924
996.903928	0.996502
997.199234	0.996427
997.494504	0.996791
997.789738	0.996092
998.084936	0.995879
998.380099	0.998256
998.675225	0.996841
998.970316	0.998707
999.265371	0.998894
999.560390	0.998730
999.855373	0.998798
1000.150320	0.998325
1000.445232	0.998305
1000.740108	0.998330
1001.034948	0.999118
1001.329752	0.998666
1001.624521	0.999553
1001.919254	0.997942
1002.213951	0.998588
1002.508613	0.998392
1002.803239	0.999467
1003.097829	0.999259
1003.392384	0.998407
1003.686903	0.998339
1003.981386	0.999819
1004.275834	1.000029
1004.570246	0.998927
1004.864623	0.998684
1005.158964	1.000538
1005.453270	0.999240
1005.747540	0.997973
1006.041775	0.998337
1006.335974	1.000475
1006.630138	0.999851
1006.924266	1.001064
1007.218359	1.000607
1007.512416	1.000353
1007.806438	0.999707
1008.100425	1.000455
1008.394376	0.999857
1008.688292	0.999699
1008.982172	1.000488
1009.276017	1.000186
1009.569827	0.999350
1009.863602	0.999771
1010.157341	0.999748
1010.451045	1.000325
1010.744714	0.999022
1011.038347	1.000156
1011.331945	1.000911
1011.625508	0.998127
1011.919036	0.998898
1012.212528	0.998591
1012.505986	0.999066
1012.799408	0.999525
1013.092795	0.999712
1013.386147	0.999316
1013.679464	0.999924
1013.972745	0.998632
1014.265992	0.998072
1014.559204	0.999410
1014.852380	1.000338
1015.145521	0.999406
1015.438628	0.999674
1015.731699	0.998433
1016.024736	0.998620
1016.317737	0.999419
1016.610703	0.999520
1016.903635	1.000348
1017.196531	0.998727
1017.489393	1.000297
1017.782219	0.998203
1018.075011	0.998583
1018.367768	0.999230
1018.660490	0.999306
1018.953177	0.999306
1019.245829	0.999306
