Dividing Wavelength (nm)	Counts (n)	Blue Motor Position (mm): 0.000000	Red Motor Position (mm): 10.600000	
326.493990	1.000928
326.888308	1.000928
327.282561	1.000928
327.676750	1.000855
328.070874	0.999865
328.464933	1.001255
328.858929	0.999390
329.252859	1.000360
329.646726	1.000174
330.040528	1.000736
330.434265	1.000313
330.827938	1.001602
331.221547	1.001129
331.615091	1.000154
332.008571	0.999802
332.401986	0.999035
332.795338	1.000582
333.188625	0.998403
333.581847	1.001392
333.975006	0.999787
334.368100	0.999279
334.761129	1.000234
335.154095	1.001829
335.546996	0.998511
335.939833	0.994079
336.332606	0.992468
336.725315	0.994681
337.117960	0.995195
337.510540	0.995003
337.903056	0.994075
338.295508	0.993665
338.687896	0.995810
339.080220	0.994153
339.472480	0.994779
339.864676	0.993172
340.256807	0.994120
340.648875	0.995268
341.040879	0.994903
341.432818	0.995109
341.824694	0.993470
342.216506	0.995746
342.608253	0.993747
342.999937	0.994275
343.391557	0.993036
343.783113	0.993682
344.174605	0.994422
344.566033	0.994804
344.957397	0.993024
345.348697	0.993370
345.739934	0.994985
346.131106	0.994500
346.522215	0.993452
346.913260	0.993809
347.304241	0.993128
347.695159	0.993666
348.086012	0.993671
348.476802	0.993145
348.867528	0.993555
349.258191	0.992660
349.648789	0.994283
350.039324	0.993240
350.429796	0.994793
350.820203	0.993949
351.210548	0.993382
351.600828	0.993415
351.991045	0.994272
352.381198	0.993074
352.771288	0.994718
353.161314	0.992933
353.551276	0.995258
353.941175	0.993906
354.331010	0.993000
354.720782	0.994327
355.110490	0.994906
355.500135	0.993985
355.889717	0.994745
356.279235	0.993845
356.668689	0.993369
357.058080	0.993687
357.447408	0.994646
357.836672	0.993140
358.225873	0.994082
358.615010	0.993577
359.004084	0.995348
359.393095	0.993503
359.782043	0.993606
360.170927	0.994845
360.559748	0.994392
360.948505	0.993235
361.337199	0.993276
361.725830	0.993191
362.114398	0.994042
362.502903	0.993674
362.891344	0.993780
363.279722	0.993025
363.668037	0.995125
364.056289	0.993242
364.444478	0.994776
364.832603	0.993126
365.220665	0.992538
365.608665	0.992403
365.996601	0.992579
366.384474	0.992940
366.772284	0.992689
367.160031	0.992567
367.547715	0.991891
367.935336	0.993446
368.322893	0.993359
368.710388	0.992651
369.097820	0.992069
369.485189	0.991961
369.872495	0.991755
370.259738	0.991643
370.646918	0.993575
371.034035	0.992612
371.421090	0.992327
371.808081	0.991945
372.195010	0.992151
372.581875	0.992624
372.968678	0.992455
373.355418	0.991988
373.742096	0.992562
374.128710	0.993524
374.515262	0.991800
374.901751	0.993415
375.288177	0.992762
375.674540	0.993146
376.060841	0.992043
376.447079	0.993173
376.833254	0.991795
377.219367	0.993831
377.605417	0.992532
377.991404	0.991883
378.377329	0.991471
378.763191	0.991898
379.148991	0.992903
379.534727	0.992213
379.920402	0.991479
380.306013	0.991738
380.691563	0.990984
381.077049	0.989214
381.462474	0.989721
381.847835	0.988004
382.233134	0.985583
382.618371	0.984452
383.003545	0.981392
383.388657	0.978414
383.773706	0.976806
384.158693	0.973030
384.543618	0.969285
384.928480	0.966116
385.313280	0.960967
385.698017	0.957751
386.082692	0.951272
386.467305	0.945789
386.851856	0.941085
387.236344	0.935034
387.620770	0.927563
388.005133	0.921747
388.389435	0.915510
388.773674	0.908015
389.157851	0.900018
389.541965	0.894136
389.926018	0.889653
390.310008	0.878028
390.693936	0.869263
391.077802	0.859346
391.461606	0.853193
391.845348	0.841024
392.229027	0.835138
392.612645	0.825567
392.996200	0.811301
393.379694	0.799585
393.763125	0.788086
394.146494	0.782290
394.529801	0.768620
394.913047	0.755886
395.296230	0.750860
395.679351	0.738638
396.062410	0.727941
396.445408	0.723573
396.828343	0.712151
397.211217	0.701987
397.594028	0.704901
397.976778	0.689300
398.359466	0.681085
398.742092	0.670325
399.124656	0.675983
399.507158	0.660680
399.889598	0.652668
400.271977	0.640097
400.654294	0.640357
401.036549	0.634307
401.418742	0.634105
401.800874	0.616837
402.182944	0.611070
402.564952	0.599208
402.946898	0.598615
403.328783	0.596248
403.710606	0.603780
404.092367	0.578103
404.474067	0.580583
404.855705	0.577277
405.237282	0.584801
405.618797	0.569045
406.000250	0.563537
406.381642	0.553360
406.762972	0.557087
407.144240	0.554514
407.525447	0.553911
407.906593	0.545690
408.287677	0.540831
408.668700	0.548756
409.049661	0.541492
409.430560	0.537021
409.811399	0.544883
410.192176	0.526227
410.572891	0.533266
410.953545	0.521643
411.334138	0.533522
411.714669	0.527722
412.095139	0.538564
412.475547	0.523417
412.855894	0.524814
413.236180	0.524076
413.616405	0.529061
413.996568	0.519757
414.376670	0.525901
414.756711	0.529646
415.136691	0.527426
415.516609	0.518439
415.896466	0.514289
416.276262	0.510840
416.655997	0.512170
417.035670	0.494131
417.415283	0.485484
417.794834	0.490796
418.174324	0.495848
418.553753	0.505240
418.933121	0.486756
419.312428	0.480913
419.691674	0.486671
420.070859	0.474853
420.449983	0.483103
420.829045	0.472592
421.208047	0.481565
421.586988	0.474835
421.965867	0.474063
422.344686	0.462498
422.723444	0.474716
423.102141	0.491694
423.480777	0.465040
423.859352	0.485149
424.237866	0.462561
424.616319	0.463245
424.994712	0.454159
425.373044	0.464671
425.751314	0.452647
426.129524	0.468618
426.507673	0.453032
426.885762	0.446841
427.263789	0.451674
427.641756	0.461116
428.019662	0.451647
428.397508	0.450090
428.775292	0.455150
429.153016	0.446991
429.530679	0.453075
429.908282	0.446519
430.285824	0.456383
430.663305	0.434969
431.040726	0.455930
431.418086	0.456692
431.795385	0.448232
432.172624	0.446395
432.549802	0.447036
432.926920	0.446391
433.303977	0.445939
433.680974	0.442621
434.057910	0.441260
434.434786	0.441160
434.811601	0.442967
435.188355	0.425769
435.565050	0.434678
435.941683	0.436194
436.318257	0.420697
436.694770	0.421537
437.071222	0.419251
437.447614	0.423918
437.823946	0.429764
438.200218	0.419495
438.576429	0.429303
438.952580	0.423029
439.328670	0.418964
439.704700	0.425457
440.080670	0.427090
440.456580	0.407906
440.832429	0.415570
441.208218	0.426611
441.583947	0.415768
441.959616	0.415849
442.335224	0.420727
442.710773	0.411251
443.086261	0.409451
443.461689	0.423350
443.837057	0.413362
444.212365	0.403163
444.587612	0.410007
444.962800	0.399917
445.337927	0.401381
445.712995	0.428037
446.088002	0.390186
446.462949	0.400775
446.837837	0.404852
447.212664	0.394379
447.587431	0.385703
447.962139	0.356410
448.336786	0.315594
448.711374	0.326152
449.085901	0.370233
449.460369	0.373829
449.834776	0.377777
450.209124	0.357039
450.583412	0.349603
450.957640	0.342619
451.331808	0.353683
451.705917	0.377206
452.079965	0.381969
452.453954	0.369980
452.827883	0.376905
453.201752	0.371516
453.575562	0.383473
453.949311	0.371772
454.323001	0.377910
454.696632	0.373941
455.070202	0.366378
455.443713	0.358072
455.817164	0.352795
456.190556	0.348672
456.563888	0.345274
456.937160	0.343193
457.310373	0.359933
457.683526	0.358998
458.056619	0.364933
458.429653	0.365835
458.802628	0.369069
459.175542	0.363080
459.548398	0.345805
459.921194	0.338402
460.293930	0.338239
460.666607	0.315704
461.039224	0.304371
461.411782	0.299755
461.784280	0.299201
462.156719	0.303305
462.529099	0.307964
462.901419	0.323460
463.273680	0.328425
463.645882	0.327707
464.018024	0.333447
464.390106	0.326517
464.762130	0.311295
465.134094	0.294260
465.505999	0.263092
465.877845	0.234001
466.249631	0.220709
466.621358	0.228249
466.993026	0.242059
467.364634	0.248281
467.736184	0.256967
468.107674	0.265910
468.479105	0.264658
468.850477	0.271658
469.221790	0.278562
469.593043	0.289000
469.964238	0.293586
470.335373	0.292644
470.706449	0.290897
471.077467	0.291748
471.448425	0.253793
471.819324	0.229498
472.190164	0.228725
472.560945	0.257484
472.931667	0.279700
473.302330	0.283623
473.672934	0.295629
474.043479	0.283831
474.413965	0.285626
474.784393	0.289120
475.154761	0.284359
475.525070	0.281203
475.895321	0.286960
476.265513	0.281229
476.635645	0.276599
477.005719	0.276716
477.375734	0.273160
477.745691	0.266524
478.115588	0.263086
478.485427	0.256250
478.855207	0.243560
479.224928	0.225913
479.594591	0.213959
479.964194	0.217355
480.333739	0.218447
480.703226	0.219962
481.072653	0.218471
481.442022	0.214209
481.811333	0.210448
482.180584	0.214140
482.549777	0.219416
482.918912	0.222517
483.287988	0.222499
483.657005	0.222339
484.025964	0.228784
484.394864	0.225807
484.763706	0.226354
485.132489	0.231616
485.501213	0.232078
485.869879	0.230441
486.238487	0.233927
486.607036	0.231687
486.975527	0.236094
487.343959	0.232200
487.712333	0.231040
488.080648	0.232702
488.448905	0.232050
488.817104	0.233236
489.185244	0.227517
489.553326	0.224407
489.921350	0.214339
490.289315	0.196940
490.657222	0.191819
491.025070	0.193191
491.392861	0.195353
491.760593	0.200815
492.128267	0.206623
492.495883	0.212052
492.863440	0.218101
493.230939	0.224764
493.598380	0.225935
493.965763	0.228119
494.333088	0.230639
494.700354	0.231785
495.067563	0.230962
495.434713	0.234400
495.801805	0.231953
496.168839	0.233313
496.535815	0.234954
496.902733	0.234871
497.269593	0.236884
497.636395	0.233979
498.003139	0.234534
498.369825	0.237555
498.736453	0.233885
499.103023	0.235648
499.469535	0.234962
499.835989	0.235334
500.202385	0.235938
500.568723	0.239298
500.935003	0.234389
501.301226	0.238696
501.667390	0.232943
502.033497	0.231037
502.399546	0.234245
502.765537	0.235791
503.131470	0.234350
503.497345	0.230437
503.863163	0.239437
504.228923	0.232440
504.594625	0.231079
504.960269	0.236722
505.325856	0.231488
505.691385	0.236024
506.056856	0.233007
506.422270	0.232009
506.787625	0.234778
507.152924	0.232078
507.518164	0.232423
507.883347	0.234025
508.248472	0.235684
508.613540	0.230807
508.978550	0.233262
509.343503	0.233950
509.708398	0.231605
510.073236	0.229108
510.438016	0.229219
510.802738	0.230207
511.167403	0.228780
511.532010	0.231310
511.896561	0.226472
512.261053	0.225282
512.625488	0.227387
512.989866	0.227485
513.354186	0.228157
513.718449	0.229623
514.082655	0.226118
514.446803	0.228514
514.810894	0.226090
515.174927	0.228820
515.538904	0.228305
515.902822	0.225112
516.266684	0.227625
516.630488	0.228507
516.994235	0.227238
517.357925	0.226068
517.721558	0.224580
518.085133	0.223980
518.448651	0.224229
518.812112	0.226244
519.175516	0.225996
519.538863	0.223913
519.902152	0.225210
520.265385	0.222051
520.628560	0.223791
520.991678	0.224311
521.354739	0.223158
521.717743	0.224363
522.080690	0.224935
522.443580	0.222114
522.806413	0.223082
523.169189	0.222501
523.531908	0.221229
523.894569	0.224833
524.257174	0.224831
524.619722	0.222662
524.982213	0.223750
525.344647	0.222505
525.707025	0.223192
526.069345	0.221534
526.431608	0.223108
526.793815	0.221081
527.155964	0.225396
527.518057	0.224266
527.880093	0.225389
528.242072	0.223921
528.603995	0.225710
528.965860	0.227517
529.327669	0.226199
529.689421	0.227100
530.051117	0.228145
530.412755	0.225628
530.774337	0.228089
531.135862	0.228345
531.497331	0.227248
531.858743	0.230317
532.220098	0.227383
532.581396	0.229915
532.942638	0.230331
533.303824	0.231226
533.664953	0.231021
534.026025	0.232647
534.387040	0.230964
534.747999	0.230523
535.108902	0.229386
535.469748	0.234376
535.830537	0.232514
536.191270	0.232856
536.551947	0.232405
536.912567	0.232400
537.273131	0.234031
537.633638	0.234043
537.994089	0.234626
538.354483	0.235864
538.714821	0.232670
539.075103	0.232521
539.435328	0.233081
539.795497	0.236968
540.155609	0.233594
540.515665	0.231675
540.875665	0.237317
541.235609	0.235818
541.595496	0.236062
541.955328	0.232727
542.315102	0.235353
542.674821	0.236317
543.034483	0.236069
543.394090	0.236130
543.753640	0.237927
544.113134	0.232922
544.472571	0.235971
544.831953	0.232984
545.191278	0.237214
545.550548	0.236680
545.909761	0.233270
546.268918	0.234047
546.628019	0.232143
546.987064	0.235257
547.346053	0.237065
547.704986	0.234799
548.063863	0.235289
548.422684	0.235357
548.781449	0.237082
549.140158	0.234685
549.498811	0.237652
549.857408	0.240632
550.215949	0.235546
550.574434	0.238408
550.932864	0.236391
551.291237	0.235409
551.649555	0.236959
552.007817	0.236356
552.366022	0.237042
552.724173	0.237493
553.082267	0.237834
553.440305	0.234601
553.798288	0.239146
554.156215	0.235707
554.514086	0.236052
554.871902	0.239623
555.229661	0.238637
555.587365	0.239331
555.945014	0.241802
556.302606	0.238545
556.660143	0.241306
557.017625	0.237667
557.375050	0.239840
557.732421	0.237177
558.089735	0.238974
558.446994	0.238976
558.804197	0.238128
559.161345	0.238107
559.518437	0.241696
559.875474	0.239210
560.232455	0.238847
560.589381	0.239825
560.946251	0.239881
561.303065	0.237378
561.659825	0.239157
562.016528	0.240749
562.373177	0.243385
562.729770	0.240607
563.086307	0.242885
563.442789	0.240511
563.799216	0.243335
564.155587	0.242211
564.511904	0.243040
564.868164	0.243688
565.224370	0.243023
565.580520	0.244685
565.936615	0.244735
566.292654	0.247847
566.648638	0.244726
567.004567	0.245829
567.360441	0.246367
567.716260	0.248491
568.072023	0.246277
568.427732	0.246653
568.783385	0.249287
569.138982	0.247284
569.494525	0.247178
569.850013	0.249910
570.205445	0.248475
570.560823	0.251035
570.916145	0.252884
571.271412	0.251127
571.626625	0.252474
571.981782	0.252896
572.336884	0.253972
572.691931	0.253610
573.046923	0.254948
573.401860	0.255877
573.756743	0.257804
574.111570	0.256631
574.466342	0.257265
574.821059	0.256039
575.175722	0.259234
575.530330	0.259152
575.884882	0.259290
576.239380	0.261014
576.593823	0.261522
576.948211	0.261250
577.302544	0.264352
577.656823	0.263821
578.011047	0.264208
578.365216	0.264730
578.719330	0.266948
579.073389	0.266372
579.427394	0.267780
579.781344	0.268419
580.135239	0.270018
580.489080	0.269450
580.842866	0.272677
581.196597	0.272593
581.550273	0.271289
581.903895	0.272388
582.257463	0.270241
582.610975	0.273708
582.964434	0.273310
583.317837	0.275844
583.671186	0.275985
584.024481	0.276153
584.377721	0.278544
584.730906	0.279200
585.084037	0.278417
585.437113	0.280338
585.790135	0.279648
586.143103	0.282711
586.496016	0.283889
586.848874	0.281592
587.201679	0.281805
587.554428	0.285218
587.907124	0.283779
588.259765	0.284721
588.612352	0.285249
588.964884	0.288789
589.317362	0.288745
589.669786	0.288451
590.022155	0.287176
590.374470	0.286410
590.726731	0.288007
591.078937	0.293176
591.431090	0.289558
591.783188	0.293891
592.135232	0.294117
592.487222	0.294083
592.839157	0.292430
593.191038	0.294771
593.542866	0.296325
593.894639	0.300024
594.246358	0.298207
594.598022	0.297527
594.949633	0.301082
595.301190	0.302027
595.652692	0.301211
596.004141	0.297025
596.355535	0.304953
596.706876	0.305927
597.058162	0.308266
597.409395	0.305617
597.760573	0.303121
598.111698	0.306154
598.462768	0.307041
598.813785	0.308073
599.164748	0.309441
599.515657	0.309655
599.866511	0.313137
600.217312	0.308349
600.568060	0.313853
600.918753	0.310153
601.269392	0.311267
601.619978	0.314564
601.970510	0.311883
602.320988	0.312403
602.671412	0.309856
603.021783	0.312403
603.372100	0.313498
603.722363	0.313566
604.072572	0.314210
604.422728	0.314054
604.772830	0.316178
605.122878	0.315476
605.472872	0.316202
605.822813	0.314579
606.172701	0.317118
606.522534	0.314508
606.872314	0.314677
607.222041	0.315599
607.571714	0.313792
607.921333	0.315092
608.270899	0.314719
608.620411	0.311609
608.969870	0.315439
609.319276	0.315575
609.668627	0.315378
610.017926	0.313907
610.367171	0.312548
610.716362	0.313334
611.065500	0.313668
611.414585	0.312440
611.763616	0.312833
612.112594	0.313190
612.461518	0.312309
612.810389	0.310281
613.159207	0.312912
613.507971	0.314648
613.856682	0.310308
614.205340	0.311877
614.553945	0.308413
614.902496	0.312546
615.250994	0.310300
615.599439	0.311298
615.947830	0.310486
616.296169	0.311686
616.644454	0.311050
616.992686	0.311269
617.340864	0.308764
617.688990	0.312791
618.037063	0.309058
618.385082	0.310795
618.733048	0.308183
619.080961	0.310489
619.428821	0.309857
619.776628	0.309627
620.124382	0.311450
620.472083	0.311533
620.819731	0.311079
621.167326	0.314564
621.514868	0.314267
621.862357	0.318987
622.209793	0.318450
622.557176	0.320700
622.904506	0.321547
623.251783	0.324084
623.599007	0.325978
623.946179	0.326115
624.293297	0.327898
624.640363	0.331631
624.987376	0.332212
625.334336	0.334727
625.681243	0.337241
626.028097	0.337705
626.374899	0.338210
626.721647	0.338787
627.068343	0.342319
627.414987	0.343316
627.761577	0.345490
628.108115	0.343808
628.454600	0.348703
628.801032	0.346338
629.147412	0.348451
629.493739	0.348113
629.840014	0.351624
630.186236	0.349163
630.532405	0.354622
630.878521	0.352300
631.224585	0.354070
631.570597	0.357872
631.916556	0.356344
632.262462	0.357144
632.608316	0.359007
632.954117	0.359482
633.299866	0.360233
633.645562	0.360835
633.991206	0.364839
634.336797	0.367941
634.682336	0.369958
635.027823	0.371565
635.373257	0.372376
635.718639	0.375951
636.063968	0.375179
636.409245	0.381167
636.754470	0.381534
637.099642	0.383640
637.444762	0.387477
637.789829	0.386018
638.134845	0.389672
638.479808	0.390504
638.824719	0.390872
639.169577	0.394564
639.514383	0.393184
639.859137	0.397984
640.203839	0.398032
640.548489	0.398118
640.893086	0.399548
641.237632	0.400663
641.582125	0.399083
641.926566	0.401117
642.270955	0.401501
642.615292	0.401532
642.959576	0.401025
643.303809	0.401356
643.647990	0.400480
643.992118	0.401169
644.336195	0.405141
644.680219	0.403060
645.024192	0.404284
645.368112	0.397440
645.711981	0.396653
646.055797	0.391853
646.399562	0.394015
646.743274	0.386360
647.086935	0.383495
647.430544	0.383589
647.774101	0.382428
648.117606	0.382558
648.461059	0.382657
648.804460	0.384774
649.147810	0.390601
649.491108	0.392383
649.834354	0.394081
650.177548	0.399141
650.520690	0.404558
650.863781	0.405548
651.206820	0.404855
651.549807	0.409705
651.892742	0.413145
652.235626	0.413338
652.578458	0.413708
652.921238	0.419747
653.263967	0.417939
653.606644	0.421947
653.949269	0.421300
654.291843	0.425693
654.634365	0.422061
654.976836	0.425517
655.319255	0.425448
655.661622	0.427291
656.003938	0.427088
656.346203	0.430207
656.688416	0.427924
657.030577	0.431630
657.372687	0.433331
657.714746	0.434494
658.056753	0.431838
658.398708	0.435142
658.740612	0.436077
659.082465	0.432841
659.424266	0.432699
659.766016	0.432433
660.107715	0.434916
660.449362	0.433794
660.790958	0.434629
661.132503	0.435275
661.473996	0.432634
661.815438	0.433630
662.156829	0.433877
662.498168	0.434534
662.839456	0.436613
663.180693	0.433878
663.521879	0.433756
663.863013	0.434590
664.204097	0.433099
664.545129	0.430203
664.886110	0.430385
665.227040	0.427933
665.567918	0.430447
665.908746	0.428699
666.249522	0.428014
666.590248	0.429057
666.930922	0.427234
667.271545	0.426298
667.612118	0.426168
667.952639	0.427633
668.293109	0.426320
668.633528	0.429226
668.973896	0.429048
669.314213	0.429723
669.654480	0.431713
669.994695	0.431347
670.334859	0.432858
670.674973	0.432374
671.015035	0.432152
671.355047	0.432502
671.695008	0.433435
672.034918	0.435420
672.374777	0.434701
672.714585	0.436081
673.054342	0.436257
673.394049	0.436158
673.733705	0.433914
674.073310	0.435129
674.412864	0.438026
674.752368	0.438384
675.091820	0.438613
675.431223	0.442863
675.770574	0.442724
676.109875	0.445478
676.449125	0.446218
676.788324	0.448200
677.127473	0.454121
677.466571	0.453980
677.805619	0.455170
678.144616	0.456297
678.483562	0.457897
678.822458	0.460209
679.161303	0.461137
679.500098	0.461522
679.838842	0.463402
680.177535	0.463193
680.516179	0.461732
680.854771	0.460722
681.193314	0.454238
681.531805	0.444805
681.870247	0.433864
682.208638	0.426375
682.546978	0.425067
682.885268	0.427175
683.223508	0.433433
683.561697	0.437320
683.899836	0.440034
684.237925	0.443072
684.575963	0.445607
684.913951	0.448748
685.251889	0.444464
685.589776	0.446709
685.927614	0.448309
686.265401	0.443084
686.603137	0.444306
686.940824	0.438783
687.278460	0.437108
687.616046	0.436409
687.953582	0.430744
688.291068	0.432633
688.628504	0.428150
688.965889	0.430226
689.303224	0.434413
689.640510	0.437965
689.977745	0.444344
690.314930	0.452624
690.652065	0.456577
690.989150	0.464512
691.326185	0.470659
691.663170	0.474997
692.000105	0.482309
692.336990	0.489663
692.673825	0.492212
693.010610	0.498974
693.347345	0.504234
693.684030	0.506258
694.020665	0.510167
694.357251	0.519290
694.693786	0.519136
695.030272	0.522655
695.366707	0.526260
695.703093	0.530118
696.039429	0.527669
696.375716	0.529524
696.711952	0.532768
697.048139	0.534622
697.384276	0.535884
697.720363	0.534304
698.056400	0.532996
698.392388	0.538836
698.728326	0.542437
699.064214	0.544871
699.400053	0.545211
699.735842	0.549439
700.071581	0.552178
700.407270	0.554561
700.742910	0.557974
701.078501	0.563805
701.414042	0.564797
701.749533	0.567310
702.084974	0.576826
702.420366	0.568003
702.755709	0.576174
703.091002	0.583595
703.426246	0.577919
703.761440	0.583032
704.096584	0.589053
704.431679	0.585066
704.766725	0.586875
705.101721	0.588959
705.436668	0.585028
705.771565	0.591538
706.106413	0.589374
706.441212	0.584274
706.775961	0.582579
707.110661	0.585826
707.445311	0.582100
707.779913	0.579985
708.114465	0.577949
708.448967	0.574143
708.783421	0.566203
709.117825	0.560775
709.452180	0.560701
709.786485	0.554586
710.120742	0.543836
710.454949	0.547013
710.789107	0.539161
711.123216	0.529868
711.457275	0.531756
711.791286	0.522479
712.125247	0.521248
712.459159	0.532127
712.793023	0.524709
713.126837	0.528976
713.460602	0.528973
713.794318	0.538031
714.127985	0.537628
714.461602	0.547403
714.795171	0.550612
715.128691	0.558108
715.462162	0.565306
715.795584	0.572098
716.128957	0.574614
716.462281	0.581161
716.795556	0.584900
717.128782	0.589913
717.461960	0.599164
717.795088	0.597400
718.128167	0.603236
718.461198	0.612771
718.794180	0.612992
719.127113	0.615719
719.459997	0.619370
719.792833	0.626289
720.125619	0.627654
720.458357	0.632963
720.791046	0.632523
721.123686	0.636035
721.456278	0.642857
721.788821	0.640460
722.121315	0.644301
722.453761	0.648622
722.786158	0.646462
723.118506	0.642492
723.450805	0.650396
723.783056	0.647426
724.115259	0.643999
724.447412	0.643885
724.779518	0.644964
725.111574	0.644115
725.443582	0.639394
725.775542	0.641313
726.107453	0.634038
726.439315	0.633350
726.771129	0.632423
727.102895	0.625255
727.434612	0.618506
727.766281	0.616071
728.097901	0.616389
728.429473	0.615522
728.760996	0.613852
729.092471	0.613322
729.423897	0.617898
729.755276	0.616647
730.086606	0.617075
730.417887	0.610996
730.749120	0.601561
731.080305	0.593074
731.411442	0.589880
731.742530	0.593950
732.073570	0.592625
732.404562	0.584302
732.735506	0.587161
733.066401	0.591843
733.397249	0.600497
733.728048	0.612660
734.058798	0.624569
734.389501	0.634509
734.720156	0.645228
735.050762	0.653441
735.381320	0.654639
735.711831	0.663050
736.042293	0.667928
736.372707	0.663706
736.703073	0.668551
737.033391	0.670866
737.363661	0.667206
737.693883	0.662981
738.024056	0.661995
738.354182	0.661938
738.684260	0.651419
739.014290	0.647054
739.344272	0.648698
739.674207	0.641821
740.004093	0.641297
740.333931	0.641622
740.663722	0.641048
740.993464	0.642535
741.323159	0.645786
741.652806	0.651488
741.982405	0.655234
742.311956	0.660194
742.641460	0.662251
742.970915	0.667533
743.300323	0.674271
743.629683	0.679585
743.958996	0.682295
744.288260	0.686401
744.617477	0.693628
744.946647	0.693713
745.275768	0.699696
745.604842	0.699500
745.933869	0.708295
746.262847	0.709584
746.591778	0.703526
746.920662	0.709537
747.249498	0.716266
747.578286	0.707215
747.907027	0.702522
748.235720	0.703493
748.564365	0.698620
748.892963	0.699012
749.221514	0.702189
749.550017	0.706978
749.878473	0.706410
750.206881	0.713412
750.535242	0.714547
750.863555	0.713790
751.191821	0.715499
751.520039	0.718449
751.848210	0.722798
752.176334	0.715627
752.504411	0.714842
752.832440	0.723490
753.160421	0.726614
753.488356	0.724689
753.816243	0.722321
754.144082	0.731062
754.471875	0.734334
754.799620	0.729755
755.127318	0.731327
755.454969	0.730835
755.782572	0.730517
756.110129	0.735882
756.437638	0.738460
756.765100	0.734254
757.092515	0.732464
757.419882	0.730713
757.747203	0.737008
758.074477	0.735759
758.401703	0.732966
758.728882	0.727844
759.056014	0.727226
759.383099	0.726531
759.710138	0.728256
760.037129	0.722789
760.364073	0.717786
760.690970	0.719919
761.017820	0.725650
761.344623	0.721481
761.671379	0.712483
761.998088	0.700828
762.324751	0.677381
762.651366	0.636116
762.977935	0.568314
763.304456	0.516847
763.630931	0.506411
763.957359	0.545712
764.283740	0.590271
764.610074	0.618147
764.936362	0.649596
765.262602	0.675559
765.588796	0.697962
765.914943	0.715733
766.241044	0.732892
766.567097	0.740630
766.893104	0.749998
767.219064	0.755885
767.544978	0.762988
767.870845	0.776075
768.196665	0.779769
768.522438	0.778731
768.848165	0.779617
769.173846	0.788736
769.499479	0.794013
769.825066	0.795554
770.150607	0.801783
770.476101	0.796508
770.801548	0.798060
771.126949	0.808988
771.452303	0.813392
771.777611	0.810939
772.102872	0.811169
772.428087	0.817249
772.753256	0.820246
773.078378	0.822373
773.403453	0.830401
773.728482	0.835901
774.053465	0.828596
774.378401	0.833222
774.703291	0.840315
775.028135	0.840119
775.352932	0.842241
775.677683	0.844546
776.002388	0.846307
776.327046	0.843618
776.651658	0.847938
776.976224	0.851826
777.300743	0.852355
777.625216	0.853667
777.949643	0.855334
778.274024	0.855863
778.598359	0.856781
778.922647	0.856010
779.246889	0.856594
779.571086	0.860259
779.895236	0.863793
780.219339	0.860759
780.543397	0.856547
780.867409	0.855110
781.191374	0.858549
781.515294	0.858412
781.839167	0.857422
782.162995	0.860549
782.486776	0.858676
782.810511	0.859630
783.134201	0.863307
783.457844	0.860825
783.781441	0.863236
784.104993	0.868647
784.428498	0.869258
784.751958	0.865988
785.075372	0.867995
785.398739	0.871709
785.722061	0.868443
786.045337	0.864270
786.368568	0.868236
786.691752	0.870758
787.014891	0.856574
787.337983	0.847672
787.661030	0.839796
787.984031	0.822854
788.306987	0.808734
788.629897	0.811596
788.952760	0.816071
789.275579	0.820992
789.598351	0.835749
789.921078	0.849030
790.243759	0.850902
790.566395	0.856292
790.888984	0.862670
791.211529	0.867670
791.534027	0.870564
791.856480	0.873627
792.178888	0.878679
792.501249	0.879825
792.823566	0.882083
793.145836	0.881866
793.468062	0.883471
793.790241	0.883752
794.112375	0.882181
794.434464	0.877583
794.756507	0.876764
795.078505	0.876646
795.400457	0.870949
795.722364	0.859042
796.044226	0.851154
796.366042	0.850983
796.687812	0.854434
797.009538	0.850806
797.331218	0.853682
797.652852	0.858170
797.974442	0.863548
798.295986	0.862613
798.617484	0.865712
798.938938	0.870488
799.260346	0.874454
799.581709	0.877506
799.903026	0.878794
800.224299	0.880234
800.545526	0.883710
800.866708	0.889068
801.187845	0.890918
801.508936	0.891656
801.829983	0.889458
802.150984	0.892367
802.471940	0.895900
802.792851	0.896350
803.113717	0.897250
803.434538	0.895945
803.755314	0.897284
804.076045	0.899637
804.396731	0.900369
804.717372	0.898331
805.037967	0.900990
805.358518	0.899139
805.679024	0.895147
805.999485	0.896054
806.319901	0.895908
806.640272	0.897615
806.960598	0.895425
807.280879	0.892532
807.601115	0.891554
807.921306	0.895902
808.241453	0.895204
808.561554	0.893017
808.881611	0.892927
809.201623	0.894825
809.521590	0.895311
809.841513	0.896351
810.161390	0.895775
810.481223	0.896455
810.801011	0.900398
811.120755	0.902940
811.440453	0.900275
811.760107	0.899606
812.079716	0.899672
812.399281	0.902492
812.718801	0.905642
813.038276	0.906441
813.357707	0.905630
813.677093	0.902814
813.996434	0.906525
814.315731	0.907260
814.634983	0.907814
814.954191	0.907405
815.273354	0.903865
815.592473	0.901142
815.911547	0.901251
816.230577	0.897784
816.549562	0.895510
816.868502	0.896901
817.187399	0.891456
817.506250	0.886801
817.825058	0.889047
818.143821	0.885641
818.462539	0.880748
818.781213	0.871804
819.099843	0.861279
819.418429	0.845615
819.736970	0.827326
820.055466	0.807542
820.373919	0.781879
820.692327	0.749365
821.010691	0.713412
821.329011	0.634795
821.647286	0.518411
821.965517	0.404394
822.283704	0.360591
822.601847	0.361465
822.919945	0.397581
823.237999	0.431929
823.556010	0.479188
823.873976	0.535670
824.191897	0.586556
824.509775	0.629868
824.827609	0.676049
825.145398	0.698719
825.463144	0.701110
825.780845	0.684800
826.098502	0.665143
826.416116	0.618474
826.733685	0.574101
827.051210	0.565938
827.368692	0.580224
827.686129	0.618307
828.003522	0.672071
828.320872	0.720695
828.638177	0.765084
828.955439	0.797423
829.272656	0.819219
829.589830	0.836813
829.906960	0.853395
830.224046	0.866173
830.541088	0.876076
830.858086	0.879492
831.175041	0.887062
831.491952	0.885133
831.808819	0.883306
832.125642	0.874693
832.442421	0.860973
832.759157	0.837808
833.075849	0.791418
833.392497	0.727827
833.709101	0.686529
834.025662	0.695778
834.342179	0.727854
834.658653	0.767033
834.975083	0.803397
835.291469	0.829173
835.607811	0.853810
835.924110	0.869078
836.240366	0.886305
836.556578	0.899944
836.872746	0.907605
837.188871	0.914780
837.504952	0.919427
837.820990	0.923348
838.136984	0.926985
838.452935	0.928646
838.768842	0.930550
839.084706	0.923286
839.400526	0.898179
839.716303	0.857076
840.032037	0.834822
840.347727	0.837613
840.663373	0.856903
840.978977	0.878353
841.294537	0.901951
841.610054	0.917606
841.925527	0.924796
842.240957	0.933019
842.556344	0.938905
842.871687	0.945706
843.186987	0.949166
843.502244	0.950197
843.817458	0.951372
844.132629	0.955507
844.447756	0.960308
844.762840	0.960746
845.077881	0.959369
845.392879	0.959147
845.707833	0.962171
846.022745	0.964418
846.337613	0.964458
846.652438	0.964906
846.967221	0.964536
847.281960	0.965050
847.596656	0.967342
847.911309	0.966066
848.225919	0.967752
848.540485	0.968129
848.855009	0.969177
849.169490	0.968169
849.483928	0.968467
849.798323	0.969529
850.112675	0.969375
850.426984	0.969249
850.741251	0.969955
851.055474	0.971068
851.369654	0.967294
851.683792	0.970407
851.997887	0.969950
852.311938	0.970940
852.625947	0.970667
852.939914	0.967842
853.253837	0.970188
853.567718	0.970350
853.881555	0.970398
854.195350	0.969013
854.509103	0.968729
854.822812	0.968949
855.136479	0.970546
855.450103	0.968605
855.763685	0.969081
856.077224	0.968358
856.390720	0.969895
856.704173	0.971144
857.017584	0.968127
857.330953	0.967748
857.644278	0.967785
857.957561	0.967745
858.270802	0.969088
858.584000	0.967086
858.897155	0.966150
859.210268	0.967952
859.523339	0.968132
859.836367	0.969855
860.149352	0.970637
860.462295	0.966995
860.775195	0.969384
861.088054	0.969747
861.400869	0.968942
861.713642	0.969628
862.026373	0.969351
862.339062	0.970418
862.651708	0.968617
862.964312	0.967235
863.276873	0.969170
863.589392	0.967874
863.901869	0.965550
864.214303	0.964559
864.526696	0.964249
864.839045	0.963974
865.151353	0.960891
865.463619	0.962037
865.775842	0.962178
866.088023	0.961653
866.400162	0.961829
866.712258	0.962271
867.024313	0.962717
867.336325	0.963516
867.648296	0.963303
867.960224	0.961478
868.272110	0.961599
868.583954	0.962678
868.895755	0.963449
869.207515	0.961208
869.519233	0.959637
869.830909	0.961012
870.142542	0.962621
870.454134	0.961780
870.765684	0.960469
871.077191	0.957887
871.388657	0.959067
871.700081	0.956891
872.011463	0.957719
872.322803	0.957327
872.634101	0.955966
872.945357	0.953849
873.256571	0.952502
873.567744	0.951594
873.878874	0.952606
874.189963	0.950397
874.501010	0.950227
874.812015	0.949393
875.122979	0.951046
875.433900	0.953372
875.744780	0.953119
876.055618	0.950009
876.366415	0.948811
876.677169	0.949089
876.987882	0.950699
877.298554	0.950325
877.609183	0.947377
877.919771	0.943558
878.230317	0.941286
878.540822	0.939810
878.851285	0.934628
879.161707	0.926672
879.472087	0.914270
879.782425	0.897375
880.092722	0.861812
880.402977	0.807802
880.713191	0.747358
881.023363	0.686683
881.333494	0.651817
881.643583	0.624368
881.953631	0.624413
882.263637	0.652678
882.573602	0.691973
882.883526	0.718626
883.193408	0.742825
883.503248	0.765587
883.813048	0.793553
884.122806	0.823633
884.432522	0.848159
884.742197	0.868192
885.051831	0.879270
885.361424	0.890256
885.670975	0.900883
885.980485	0.910802
886.289954	0.917502
886.599382	0.923355
886.908768	0.927177
887.218113	0.932460
887.527417	0.937781
887.836680	0.941087
888.145901	0.942075
888.455082	0.945497
888.764221	0.949651
889.073319	0.952157
889.382376	0.952205
889.691392	0.951497
890.000366	0.951837
890.309300	0.952110
890.618193	0.952704
890.927044	0.949992
891.235855	0.950681
891.544625	0.950256
891.853353	0.950988
892.162041	0.948704
892.470687	0.940926
892.779293	0.937787
893.087858	0.933291
893.396381	0.925225
893.704864	0.911350
894.013306	0.887409
894.321707	0.859222
894.630068	0.844818
894.938387	0.839927
895.246665	0.841440
895.554903	0.853369
895.863100	0.867135
896.171256	0.883964
896.479371	0.903550
896.787446	0.917227
897.095480	0.924123
897.403473	0.926878
897.711425	0.931999
898.019336	0.939376
898.327207	0.942883
898.635038	0.943596
898.942827	0.944823
899.250576	0.947757
899.558284	0.951479
899.865952	0.952117
900.173579	0.954670
900.481165	0.953843
900.788711	0.959271
901.096216	0.960615
901.403681	0.961166
901.711105	0.962461
902.018489	0.963047
902.325832	0.961618
902.633135	0.961241
902.940397	0.955643
903.247619	0.942060
903.554800	0.916260
903.861941	0.876024
904.169041	0.838074
904.476101	0.820317
904.783121	0.823404
905.090100	0.839114
905.397039	0.860635
905.703938	0.883342
906.010796	0.903316
906.317614	0.921177
906.624391	0.932871
906.931129	0.943055
907.237826	0.950712
907.544483	0.958543
907.851099	0.961396
908.157675	0.967023
908.464211	0.968880
908.770707	0.971637
909.077163	0.973776
909.383578	0.975171
909.689954	0.974312
909.996289	0.975832
910.302584	0.977955
910.608839	0.978817
910.915054	0.978415
911.221229	0.977104
911.527363	0.976827
911.833458	0.976454
912.139513	0.975778
912.445527	0.974525
912.751502	0.973699
913.057436	0.971668
913.363331	0.969298
913.669186	0.965915
913.975000	0.960434
914.280775	0.954136
914.586510	0.946422
914.892205	0.933757
915.197859	0.911953
915.503475	0.882891
915.809050	0.862980
916.114585	0.857509
916.420081	0.854319
916.725536	0.851092
917.030952	0.859994
917.336328	0.873502
917.641665	0.888294
917.946961	0.904489
918.252218	0.915857
918.557435	0.925149
918.862612	0.934713
919.167750	0.940570
919.472848	0.945512
919.777906	0.951007
920.082925	0.957635
920.387904	0.961101
920.692843	0.962728
920.997743	0.962740
921.302603	0.966639
921.607423	0.968855
921.912204	0.970558
922.216946	0.971341
922.521647	0.971814
922.826310	0.974943
923.130932	0.975311
923.435516	0.977826
923.740059	0.979060
924.044564	0.979080
924.349028	0.979700
924.653454	0.983689
924.957840	0.984677
925.262186	0.983205
925.566493	0.983111
925.870761	0.985226
926.174989	0.985885
926.479178	0.987136
926.783328	0.988096
927.087438	0.988987
927.391509	0.987802
927.695541	0.989240
927.999533	0.988639
928.303486	0.989837
928.607400	0.991198
928.911275	0.989658
929.215110	0.990510
929.518906	0.990514
929.822663	0.990238
930.126381	0.990528
930.430060	0.990596
930.733699	0.990628
931.037299	0.989700
931.340861	0.990459
931.644383	0.990098
931.947866	0.987923
932.251309	0.989744
932.554714	0.989667
932.858080	0.989242
933.161407	0.990823
933.464694	0.991937
933.767943	0.989401
934.071153	0.991280
934.374323	0.992253
934.677455	0.990454
934.980548	0.991986
935.283602	0.990859
935.586617	0.991826
935.889593	0.991127
936.192530	0.989819
936.495428	0.991287
936.798287	0.990001
937.101108	0.990962
937.403890	0.988810
937.706632	0.989215
938.009336	0.986658
938.312002	0.985611
938.614628	0.984656
938.917216	0.983556
939.219765	0.981503
939.522275	0.982312
939.824747	0.983029
940.127179	0.983108
940.429573	0.984515
940.731929	0.982884
941.034246	0.984111
941.336524	0.984037
941.638763	0.985185
941.940964	0.987183
942.243126	0.985903
942.545250	0.987253
942.847335	0.988311
943.149381	0.987823
943.451389	0.987833
943.753359	0.988740
944.055290	0.990643
944.357182	0.989483
944.659036	0.988768
944.960851	0.988797
945.262628	0.990135
945.564367	0.990265
945.866067	0.990631
946.167729	0.990737
946.469352	0.988186
946.770937	0.989955
947.072484	0.989843
947.373992	0.990413
947.675462	0.989064
947.976893	0.989958
948.278286	0.990083
948.579641	0.991127
948.880958	0.990629
949.182236	0.991078
949.483476	0.991151
949.784678	0.990709
950.085841	0.990868
950.386967	0.990694
950.688054	0.991125
950.989103	0.990867
951.290114	0.989139
951.591087	0.990077
951.892021	0.990139
952.192917	0.989439
952.493776	0.987306
952.794596	0.987523
953.095378	0.988359
953.396122	0.988143
953.696828	0.987092
953.997496	0.989869
954.298126	0.990253
954.598718	0.990736
954.899272	0.991048
955.199788	0.989081
955.500266	0.992408
955.800706	0.993157
956.101108	0.992084
956.401472	0.993620
956.701798	0.994356
957.002087	0.993762
957.302337	0.993354
957.602550	0.996033
957.902724	0.994098
958.202861	0.994560
958.502960	0.995538
958.803022	0.993801
959.103045	0.996750
959.403031	0.995514
959.702979	0.994489
960.002889	0.995824
960.302762	0.995307
960.602596	0.995397
960.902393	0.995779
961.202153	0.996176
961.501875	0.996861
961.801559	0.995791
962.101205	0.995686
962.400814	0.996998
962.700385	0.996887
962.999918	0.996745
963.299414	0.996742
963.598873	0.996191
963.898293	0.996630
964.197677	0.996934
964.497022	0.996891
964.796331	0.996296
965.095601	0.997614
965.394835	0.996425
965.694030	0.997784
965.993189	0.997219
966.292309	0.997001
966.591393	0.997760
966.890439	0.996951
967.189447	0.996553
967.488419	0.997151
967.787353	0.996270
968.086249	0.995638
968.385108	0.998337
968.683930	0.997354
968.982714	0.998141
969.281462	0.997886
969.580172	0.996972
969.878844	0.997695
970.177480	0.997116
970.476078	0.996999
970.774639	0.997397
971.073162	0.997619
971.371649	0.996527
971.670098	0.995871
971.968510	0.998165
972.266885	0.995538
972.565223	0.997886
972.863524	0.996075
973.161788	0.995677
973.460014	0.998093
973.758204	0.996315
974.056356	0.996943
974.354471	0.996135
974.652550	0.997246
974.950591	0.995995
975.248595	0.996024
975.546563	0.997238
975.844493	0.997416
976.142386	0.997572
976.440243	0.997885
976.738062	0.996852
977.035845	0.998200
977.333590	0.997478
977.631299	0.997512
977.928971	0.996778
978.226606	0.996313
978.524204	0.995874
978.821765	0.998073
979.119290	0.996074
979.416777	0.996875
979.714228	0.997849
980.011642	0.996436
980.309020	0.996691
980.606360	0.996775
980.903664	0.998396
981.200931	0.996367
981.498162	0.994666
981.795356	0.994844
982.092513	0.994784
982.389633	0.993588
982.686717	0.991207
982.983764	0.991737
983.280775	0.989876
983.577749	0.990003
983.874686	0.991911
984.171587	0.991800
984.468451	0.994947
984.765279	0.993311
985.062070	0.993880
985.358824	0.995141
985.655543	0.994723
985.952224	0.996144
986.248869	0.996828
986.545478	0.996793
986.842050	0.999687
987.138586	0.996762
987.435086	0.997912
987.731549	0.997686
988.027975	0.998995
988.324366	0.998251
988.620719	0.998154
988.917037	0.996821
989.213318	0.998087
989.509563	0.997602
989.805772	0.998043
990.101944	0.998373
990.398080	0.996935
990.694180	0.998893
990.990244	0.997699
991.286271	0.998253
991.582262	0.999297
991.878217	0.998151
992.174136	0.998693
992.470019	0.999280
992.765865	0.998229
993.061676	0.997758
993.357450	0.997867
993.653188	0.997555
993.948890	0.997217
994.244556	0.999197
994.540186	0.997524
994.835780	0.996752
995.131337	0.997114
995.426859	0.997584
995.722345	0.997858
996.017795	0.997209
996.313208	0.995936
996.608586	0.995742
996.903928	0.996089
997.199234	0.995289
997.494504	0.996500
997.789738	0.997324
998.084936	0.995915
998.380099	0.997819
998.675225	0.997741
998.970316	0.998649
999.265371	0.998305
999.560390	0.998545
999.855373	0.998450
1000.150320	0.998218
1000.445232	0.998192
1000.740108	0.998731
1001.034948	0.998005
1001.329752	0.998343
1001.624521	0.999110
1001.919254	0.998546
1002.213951	0.998426
1002.508613	0.998502
1002.803239	0.999915
1003.097829	0.999443
1003.392384	0.999738
1003.686903	0.999291
1003.981386	0.998990
1004.275834	0.998525
1004.570246	0.999340
1004.864623	0.999278
1005.158964	0.999619
1005.453270	0.998179
1005.747540	0.996429
1006.041775	0.998945
1006.335974	0.999319
1006.630138	0.999249
1006.924266	0.999897
1007.218359	0.999647
1007.512416	0.998766
1007.806438	0.999743
1008.100425	0.999644
1008.394376	0.998337
1008.688292	0.998905
1008.982172	1.000281
1009.276017	0.999687
1009.569827	0.999604
1009.863602	0.998666
1010.157341	0.999462
1010.451045	0.999599
1010.744714	0.999015
1011.038347	0.999481
1011.331945	0.999643
1011.625508	0.998876
1011.919036	0.998750
1012.212528	0.998965
1012.505986	0.998188
1012.799408	0.998710
1013.092795	0.999815
1013.386147	0.999296
1013.679464	0.999299
1013.972745	0.998327
1014.265992	0.998378
1014.559204	1.000481
1014.852380	1.000229
1015.145521	0.999672
1015.438628	0.999083
1015.731699	0.999251
1016.024736	0.999370
1016.317737	0.998397
1016.610703	0.998411
1016.903635	1.000600
1017.196531	0.998344
1017.489393	1.000841
1017.782219	0.999103
1018.075011	0.999062
1018.367768	0.999173
1018.660490	1.000383
1018.953177	1.000383
1019.245829	1.000383
