Dividing Wavelength (nm)	Counts (n)	Blue Motor Position (mm): 0.000000	Red Motor Position (mm): 33.200000	
326.493990	1.000510
326.888308	1.000510
327.282561	1.000510
327.676750	1.000232
328.070874	1.000178
328.464933	1.000578
328.858929	1.000220
329.252859	0.999921
329.646726	0.998291
330.040528	1.000441
330.434265	0.999341
330.827938	1.000647
331.221547	1.000214
331.615091	1.000760
332.008571	0.999065
332.401986	1.001197
332.795338	1.001525
333.188625	0.998662
333.581847	1.001573
333.975006	0.999299
334.368100	1.000148
334.761129	0.999989
335.154095	1.001100
335.546996	0.999013
335.939833	0.995363
336.332606	0.996545
336.725315	0.995834
337.117960	0.997863
337.510540	0.995541
337.903056	0.996782
338.295508	0.996498
338.687896	0.997018
339.080220	0.996088
339.472480	0.995233
339.864676	0.995607
340.256807	0.996383
340.648875	0.997268
341.040879	0.997014
341.432818	0.995673
341.824694	0.996027
342.216506	0.997633
342.608253	0.996245
342.999937	0.996367
343.391557	0.996303
343.783113	0.996169
344.174605	0.996702
344.566033	0.996922
344.957397	0.995996
345.348697	0.996291
345.739934	0.996519
346.131106	0.995913
346.522215	0.995907
346.913260	0.995998
347.304241	0.996255
347.695159	0.996327
348.086012	0.995241
348.476802	0.996711
348.867528	0.996283
349.258191	0.995460
349.648789	0.997537
350.039324	0.996975
350.429796	0.996948
350.820203	0.996950
351.210548	0.996604
351.600828	0.996483
351.991045	0.997799
352.381198	0.995487
352.771288	0.996611
353.161314	0.995086
353.551276	0.998332
353.941175	0.995617
354.331010	0.995805
354.720782	0.996490
355.110490	0.996113
355.500135	0.998312
355.889717	0.996969
356.279235	0.995913
356.668689	0.995909
357.058080	0.996073
357.447408	0.997487
357.836672	0.997304
358.225873	0.997079
358.615010	0.996017
359.004084	0.997787
359.393095	0.997350
359.782043	0.997063
360.170927	0.997622
360.559748	0.997202
360.948505	0.995933
361.337199	0.996425
361.725830	0.996459
362.114398	0.996017
362.502903	0.996864
362.891344	0.996686
363.279722	0.996180
363.668037	0.996377
364.056289	0.996044
364.444478	0.996853
364.832603	0.996387
365.220665	0.995497
365.608665	0.995862
365.996601	0.996352
366.384474	0.995967
366.772284	0.996364
367.160031	0.994951
367.547715	0.995723
367.935336	0.997233
368.322893	0.996256
368.710388	0.996486
369.097820	0.997144
369.485189	0.996497
369.872495	0.996385
370.259738	0.995418
370.646918	0.997181
371.034035	0.997437
371.421090	0.997156
371.808081	0.996444
372.195010	0.997217
372.581875	0.997208
372.968678	0.996876
373.355418	0.997576
373.742096	0.996271
374.128710	0.996880
374.515262	0.995650
374.901751	0.997947
375.288177	0.997467
375.674540	0.997453
376.060841	0.995941
376.447079	0.997337
376.833254	0.997256
377.219367	0.997173
377.605417	0.997678
377.991404	0.997031
378.377329	0.996543
378.763191	0.997631
379.148991	0.998123
379.534727	0.996733
379.920402	0.997961
380.306013	0.997709
380.691563	0.997634
381.077049	0.997394
381.462474	0.997897
381.847835	0.997264
382.233134	0.997028
382.618371	0.997107
383.003545	0.997993
383.388657	0.998056
383.773706	0.998100
384.158693	0.997297
384.543618	0.997890
384.928480	0.998824
385.313280	0.998179
385.698017	0.999303
386.082692	0.998618
386.467305	0.998089
386.851856	0.998013
387.236344	0.998537
387.620770	0.997467
388.005133	0.998573
388.389435	0.999513
388.773674	0.998951
389.157851	0.998476
389.541965	0.997842
389.926018	0.998196
390.310008	0.999343
390.693936	0.998209
391.077802	0.999204
391.461606	0.998415
391.845348	0.998651
392.229027	0.999311
392.612645	0.998379
392.996200	0.998410
393.379694	0.998001
393.763125	1.000009
394.146494	0.999761
394.529801	0.998299
394.913047	0.998983
395.296230	0.998656
395.679351	0.997795
396.062410	0.998086
396.445408	0.998708
396.828343	0.998111
397.211217	0.999118
397.594028	0.998975
397.976778	0.999328
398.359466	0.997933
398.742092	0.998629
399.124656	0.999371
399.507158	0.998287
399.889598	0.998383
400.271977	0.999013
400.654294	0.998909
401.036549	0.999746
401.418742	0.999630
401.800874	0.997975
402.182944	0.997900
402.564952	0.997961
402.946898	0.999760
403.328783	0.998068
403.710606	0.998503
404.092367	0.998579
404.474067	0.998834
404.855705	0.998409
405.237282	0.999034
405.618797	0.998455
406.000250	0.998590
406.381642	0.998573
406.762972	0.998950
407.144240	0.999566
407.525447	0.998783
407.906593	0.998086
408.287677	0.999037
408.668700	0.998752
409.049661	0.998884
409.430560	0.998277
409.811399	0.998092
410.192176	0.998545
410.572891	0.997388
410.953545	0.997774
411.334138	0.998030
411.714669	0.998810
412.095139	0.998231
412.475547	0.999357
412.855894	0.998946
413.236180	0.998605
413.616405	0.999459
413.996568	0.998971
414.376670	0.998149
414.756711	0.998484
415.136691	0.998638
415.516609	0.998624
415.896466	0.998546
416.276262	0.998123
416.655997	0.999122
417.035670	0.997631
417.415283	0.998769
417.794834	0.998900
418.174324	0.998679
418.553753	0.998808
418.933121	0.999106
419.312428	0.999161
419.691674	0.997972
420.070859	0.999733
420.449983	0.998723
420.829045	0.998892
421.208047	0.999809
421.586988	0.999952
421.965867	0.998153
422.344686	0.999889
422.723444	0.999277
423.102141	0.998586
423.480777	0.999208
423.859352	0.999294
424.237866	0.998447
424.616319	0.999431
424.994712	0.998655
425.373044	0.999471
425.751314	0.999301
426.129524	0.998237
426.507673	0.998359
426.885762	0.999538
427.263789	0.998314
427.641756	0.999772
428.019662	0.999228
428.397508	0.998585
428.775292	0.998225
429.153016	0.998829
429.530679	0.998977
429.908282	0.999258
430.285824	0.998132
430.663305	0.998914
431.040726	0.998387
431.418086	0.999596
431.795385	0.998898
432.172624	0.998550
432.549802	0.999131
432.926920	0.999489
433.303977	0.998374
433.680974	0.999272
434.057910	0.999525
434.434786	0.999807
434.811601	0.998420
435.188355	0.998307
435.565050	0.998271
435.941683	0.998060
436.318257	0.999647
436.694770	0.998592
437.071222	0.999502
437.447614	0.998499
437.823946	0.998758
438.200218	0.999392
438.576429	0.999340
438.952580	0.999603
439.328670	0.998659
439.704700	0.999689
440.080670	0.999616
440.456580	0.998086
440.832429	0.998037
441.208218	0.999943
441.583947	0.999904
441.959616	0.999080
442.335224	0.998862
442.710773	0.999956
443.086261	0.998668
443.461689	0.998668
443.837057	0.998754
444.212365	0.999589
444.587612	0.999067
444.962800	0.998837
445.337927	0.999125
445.712995	0.999219
446.088002	0.999080
446.462949	0.998925
446.837837	0.999583
447.212664	0.999142
447.587431	1.000249
447.962139	0.999408
448.336786	0.999419
448.711374	0.999830
449.085901	0.999353
449.460369	0.999490
449.834776	0.998804
450.209124	0.999791
450.583412	0.998722
450.957640	0.999107
451.331808	0.998307
451.705917	0.998130
452.079965	0.998925
452.453954	0.999239
452.827883	0.998896
453.201752	0.999202
453.575562	0.999880
453.949311	0.999439
454.323001	0.998850
454.696632	0.998887
455.070202	0.998918
455.443713	0.998594
455.817164	0.999281
456.190556	0.998891
456.563888	0.998356
456.937160	0.998762
457.310373	0.998712
457.683526	0.998628
458.056619	0.998743
458.429653	0.999026
458.802628	0.998215
459.175542	0.998322
459.548398	0.998768
459.921194	0.998364
460.293930	0.998232
460.666607	0.998718
461.039224	0.998170
461.411782	0.999269
461.784280	0.998337
462.156719	0.999441
462.529099	0.998676
462.901419	0.998645
463.273680	0.999124
463.645882	0.998909
464.018024	0.998855
464.390106	0.998561
464.762130	0.999893
465.134094	0.999122
465.505999	0.999075
465.877845	0.999196
466.249631	0.999516
466.621358	0.999305
466.993026	0.999244
467.364634	0.998789
467.736184	0.999570
468.107674	0.999061
468.479105	0.998536
468.850477	0.999175
469.221790	0.998932
469.593043	0.998724
469.964238	0.999353
470.335373	0.999054
470.706449	0.998939
471.077467	0.998975
471.448425	0.998708
471.819324	0.999473
472.190164	0.998484
472.560945	0.998928
472.931667	0.997819
473.302330	0.998306
473.672934	0.998971
474.043479	0.998584
474.413965	0.998851
474.784393	0.999463
475.154761	0.998946
475.525070	0.997528
475.895321	0.998691
476.265513	0.998128
476.635645	0.998282
477.005719	0.999051
477.375734	0.997699
477.745691	0.998587
478.115588	0.999132
478.485427	0.998779
478.855207	0.998245
479.224928	0.998593
479.594591	0.998409
479.964194	0.998813
480.333739	0.998675
480.703226	0.998175
481.072653	0.998742
481.442022	0.999193
481.811333	0.997682
482.180584	0.998970
482.549777	0.997553
482.918912	0.997619
483.287988	0.998754
483.657005	0.997704
484.025964	0.998377
484.394864	0.997980
484.763706	0.997990
485.132489	0.997688
485.501213	0.997230
485.869879	0.996883
486.238487	0.996813
486.607036	0.997026
486.975527	0.995670
487.343959	0.995332
487.712333	0.995841
488.080648	0.995524
488.448905	0.995443
488.817104	0.994816
489.185244	0.994671
489.553326	0.994869
489.921350	0.993753
490.289315	0.992559
490.657222	0.992914
491.025070	0.992377
491.392861	0.991345
491.760593	0.991122
492.128267	0.990659
492.495883	0.989882
492.863440	0.989316
493.230939	0.989347
493.598380	0.988024
493.965763	0.987387
494.333088	0.986878
494.700354	0.985320
495.067563	0.984911
495.434713	0.983381
495.801805	0.983721
496.168839	0.982660
496.535815	0.981108
496.902733	0.980264
497.269593	0.979145
497.636395	0.978053
498.003139	0.976074
498.369825	0.975794
498.736453	0.973516
499.103023	0.971891
499.469535	0.970376
499.835989	0.970134
500.202385	0.967722
500.568723	0.966314
500.935003	0.964595
501.301226	0.962846
501.667390	0.960772
502.033497	0.958995
502.399546	0.958062
502.765537	0.955388
503.131470	0.952962
503.497345	0.950707
503.863163	0.950698
504.228923	0.946842
504.594625	0.944884
504.960269	0.942652
505.325856	0.939537
505.691385	0.936739
506.056856	0.934434
506.422270	0.930799
506.787625	0.929080
507.152924	0.925772
507.518164	0.923172
507.883347	0.920562
508.248472	0.917355
508.613540	0.913412
508.978550	0.910899
509.343503	0.906736
509.708398	0.903093
510.073236	0.899695
510.438016	0.897042
510.802738	0.892734
511.167403	0.889229
511.532010	0.884534
511.896561	0.881144
512.261053	0.877917
512.625488	0.873484
512.989866	0.869216
513.354186	0.864608
513.718449	0.860984
514.082655	0.856253
514.446803	0.852254
514.810894	0.847364
515.174927	0.842191
515.538904	0.838893
515.902822	0.832447
516.266684	0.829173
516.630488	0.824396
516.994235	0.819241
517.357925	0.813749
517.721558	0.809196
518.085133	0.802279
518.448651	0.799320
518.812112	0.793946
519.175516	0.788075
519.538863	0.782515
519.902152	0.777984
520.265385	0.770425
520.628560	0.767137
520.991678	0.761160
521.354739	0.756643
521.717743	0.751335
522.080690	0.746325
522.443580	0.738400
522.806413	0.733520
523.169189	0.727885
523.531908	0.722443
523.894569	0.717834
524.257174	0.712126
524.619722	0.704938
524.982213	0.701055
525.344647	0.693841
525.707025	0.688892
526.069345	0.682337
526.431608	0.675850
526.793815	0.669964
527.155964	0.665624
527.518057	0.659931
527.880093	0.653784
528.242072	0.648404
528.603995	0.642454
528.965860	0.638138
529.327669	0.631503
529.689421	0.626327
530.051117	0.621559
530.412755	0.613617
530.774337	0.610504
531.135862	0.603659
531.497331	0.598577
531.858743	0.594330
532.220098	0.586734
532.581396	0.582291
532.942638	0.577761
533.303824	0.572450
533.664953	0.566276
534.026025	0.561937
534.387040	0.554926
534.747999	0.549925
535.108902	0.543752
535.469748	0.541459
535.830537	0.534928
536.191270	0.530058
536.551947	0.524195
536.912567	0.518913
537.273131	0.516153
537.633638	0.510360
537.994089	0.505561
538.354483	0.501014
538.714821	0.494679
539.075103	0.489203
539.435328	0.484715
539.795497	0.482884
540.155609	0.474492
540.515665	0.469103
540.875665	0.469029
541.235609	0.462482
541.595496	0.457871
541.955328	0.450030
542.315102	0.448580
542.674821	0.444690
543.034483	0.440196
543.394090	0.435297
543.753640	0.432767
544.113134	0.424062
544.472571	0.423029
544.831953	0.415648
545.191278	0.415333
545.550548	0.411017
545.909761	0.404268
546.268918	0.401045
546.628019	0.395754
546.987064	0.393799
547.346053	0.392402
547.704986	0.386035
548.063863	0.382930
548.422684	0.379880
548.781449	0.377403
549.140158	0.371885
549.498811	0.371190
549.857408	0.371131
550.215949	0.362415
550.574434	0.362186
550.932864	0.356748
551.291237	0.352982
551.649555	0.350601
552.007817	0.347956
552.366022	0.345789
552.724173	0.343062
553.082267	0.340844
553.440305	0.334540
553.798288	0.336814
554.156215	0.330704
554.514086	0.328746
554.871902	0.328990
555.229661	0.325847
555.587365	0.324097
555.945014	0.324701
556.302606	0.318622
556.660143	0.319419
557.017625	0.313614
557.375050	0.313630
557.732421	0.308639
558.089735	0.308509
558.446994	0.306601
558.804197	0.303674
559.161345	0.302083
559.518437	0.303372
559.875474	0.298766
560.232455	0.296751
560.589381	0.296690
560.946251	0.294077
561.303065	0.291037
561.659825	0.290295
562.016528	0.289949
562.373177	0.291718
562.729770	0.287608
563.086307	0.288291
563.442789	0.284776
563.799216	0.285809
564.155587	0.283337
564.511904	0.282789
564.868164	0.281733
565.224370	0.280816
565.580520	0.281074
565.936615	0.280285
566.292654	0.281697
566.648638	0.277978
567.004567	0.277585
567.360441	0.277403
567.716260	0.278293
568.072023	0.275165
568.427732	0.275133
568.783385	0.276886
569.138982	0.274046
569.494525	0.272830
569.850013	0.275253
570.205445	0.272825
570.560823	0.274523
570.916145	0.275802
571.271412	0.273457
571.626625	0.274127
571.981782	0.273769
572.336884	0.274481
572.691931	0.273654
573.046923	0.274150
573.401860	0.274769
573.756743	0.276086
574.111570	0.274465
574.466342	0.274531
574.821059	0.273311
575.175722	0.275703
575.530330	0.274790
575.884882	0.274750
576.239380	0.276384
576.593823	0.276563
576.948211	0.275693
577.302544	0.278734
577.656823	0.278031
578.011047	0.277859
578.365216	0.278014
578.719330	0.279627
579.073389	0.279377
579.427394	0.280361
579.781344	0.280938
580.135239	0.282325
580.489080	0.281902
580.842866	0.284535
581.196597	0.284178
581.550273	0.282831
581.903895	0.283402
582.257463	0.281329
582.610975	0.284628
582.964434	0.283639
583.317837	0.286071
583.671186	0.286587
584.024481	0.286568
584.377721	0.288947
584.730906	0.289426
585.084037	0.288279
585.437113	0.290248
585.790135	0.289414
586.143103	0.292526
586.496016	0.293284
586.848874	0.290743
587.201679	0.291237
587.554428	0.294096
587.907124	0.293089
588.259765	0.293602
588.612352	0.294230
588.964884	0.297656
589.317362	0.297465
589.669786	0.297295
590.022155	0.295832
590.374470	0.295181
590.726731	0.297076
591.078937	0.301473
591.431090	0.297748
591.783188	0.302028
592.135232	0.302459
592.487222	0.302159
592.839157	0.300507
593.191038	0.302646
593.542866	0.304341
593.894639	0.308173
594.246358	0.305854
594.598022	0.305492
594.949633	0.308895
595.301190	0.309700
595.652692	0.308718
596.004141	0.305083
596.355535	0.312806
596.706876	0.313244
597.058162	0.315461
597.409395	0.312922
597.760573	0.310474
598.111698	0.313646
598.462768	0.314295
598.813785	0.315768
599.164748	0.316601
599.515657	0.316805
599.866511	0.320413
600.217312	0.315247
600.568060	0.320802
600.918753	0.317255
601.269392	0.318095
601.619978	0.321738
601.970510	0.318913
602.320988	0.319106
602.671412	0.316549
603.021783	0.319124
603.372100	0.320838
603.722363	0.320181
604.072572	0.321353
604.422728	0.320806
604.772830	0.322816
605.122878	0.322598
605.472872	0.322847
605.822813	0.321370
606.172701	0.323673
606.522534	0.321148
606.872314	0.321045
607.222041	0.322394
607.571714	0.320141
607.921333	0.321620
608.270899	0.321451
608.620411	0.318360
608.969870	0.321970
609.319276	0.321998
609.668627	0.322015
610.017926	0.320481
610.367171	0.319265
610.716362	0.319737
611.065500	0.320109
611.414585	0.318767
611.763616	0.319603
612.112594	0.319670
612.461518	0.318775
612.810389	0.316918
613.159207	0.319216
613.507971	0.320885
613.856682	0.316393
614.205340	0.318509
614.553945	0.315071
614.902496	0.319243
615.250994	0.316854
615.599439	0.317540
615.947830	0.316804
616.296169	0.317911
616.644454	0.317434
616.992686	0.317762
617.340864	0.315604
617.688990	0.319128
618.037063	0.315690
618.385082	0.317673
618.733048	0.314207
619.080961	0.316663
619.428821	0.316025
619.776628	0.315932
620.124382	0.317718
620.472083	0.318151
620.819731	0.317248
621.167326	0.321168
621.514868	0.321071
621.862357	0.325005
622.209793	0.324542
622.557176	0.326884
622.904506	0.328155
623.251783	0.330740
623.599007	0.332554
623.946179	0.332491
624.293297	0.334032
624.640363	0.337797
624.987376	0.338430
625.334336	0.341087
625.681243	0.343164
626.028097	0.343901
626.374899	0.344599
626.721647	0.344970
627.068343	0.348475
627.414987	0.349782
627.761577	0.351402
628.108115	0.349817
628.454600	0.354934
628.801032	0.352422
629.147412	0.354217
629.493739	0.354573
629.840014	0.357936
630.186236	0.355595
630.532405	0.360922
630.878521	0.358107
631.224585	0.360237
631.570597	0.363978
631.916556	0.362467
632.262462	0.362653
632.608316	0.364771
632.954117	0.365639
633.299866	0.366737
633.645562	0.366814
633.991206	0.371061
634.336797	0.373984
634.682336	0.376458
635.027823	0.377752
635.373257	0.378243
635.718639	0.381887
636.063968	0.381322
636.409245	0.387081
636.754470	0.387232
637.099642	0.389765
637.444762	0.392641
637.789829	0.392336
638.134845	0.395649
638.479808	0.396612
638.824719	0.396612
639.169577	0.400474
639.514383	0.399466
639.859137	0.403188
640.203839	0.403382
640.548489	0.403793
640.893086	0.405157
641.237632	0.407167
641.582125	0.404973
641.926566	0.407292
642.270955	0.406837
642.615292	0.407415
642.959576	0.406669
643.303809	0.406712
643.647990	0.406383
643.992118	0.407457
644.336195	0.410504
644.680219	0.408902
645.024192	0.409155
645.368112	0.403299
645.711981	0.402333
646.055797	0.397581
646.399562	0.400165
646.743274	0.392258
647.086935	0.389437
647.430544	0.389681
647.774101	0.388653
648.117606	0.388453
648.461059	0.388363
648.804460	0.391314
649.147810	0.396511
649.491108	0.397809
649.834354	0.399138
650.177548	0.404474
650.520690	0.410382
650.863781	0.411343
651.206820	0.410796
651.549807	0.415243
651.892742	0.419306
652.235626	0.419055
652.578458	0.420193
652.921238	0.425743
653.263967	0.423279
653.606644	0.427638
653.949269	0.427617
654.291843	0.431520
654.634365	0.427680
654.976836	0.430603
655.319255	0.431442
655.661622	0.433142
656.003938	0.433045
656.346203	0.436251
656.688416	0.433549
657.030577	0.437025
657.372687	0.439510
657.714746	0.439795
658.056753	0.436933
658.398708	0.440697
658.740612	0.441804
659.082465	0.437837
659.424266	0.438651
659.766016	0.437890
660.107715	0.440307
660.449362	0.439561
660.790958	0.440133
661.132503	0.440852
661.473996	0.438481
661.815438	0.439498
662.156829	0.439620
662.498168	0.440042
662.839456	0.441894
663.180693	0.439715
663.521879	0.439422
663.863013	0.440195
664.204097	0.438701
664.545129	0.435661
664.886110	0.435858
665.227040	0.433122
665.567918	0.436238
665.908746	0.433874
666.249522	0.433667
666.590248	0.434741
666.930922	0.432910
667.271545	0.431732
667.612118	0.432165
667.952639	0.433290
668.293109	0.431845
668.633528	0.434889
668.973896	0.434718
669.314213	0.435486
669.654480	0.436878
669.994695	0.436790
670.334859	0.438023
670.674973	0.437743
671.015035	0.438504
671.355047	0.438314
671.695008	0.439718
672.034918	0.441021
672.374777	0.440565
672.714585	0.441978
673.054342	0.441329
673.394049	0.442395
673.733705	0.439139
674.073310	0.440394
674.412864	0.443850
674.752368	0.444249
675.091820	0.444610
675.431223	0.448953
675.770574	0.448557
676.109875	0.451559
676.449125	0.451277
676.788324	0.454176
677.127473	0.459909
677.466571	0.459118
677.805619	0.460442
678.144616	0.461515
678.483562	0.463246
678.822458	0.465715
679.161303	0.467530
679.500098	0.467134
679.838842	0.469185
680.177535	0.468784
680.516179	0.466601
680.854771	0.466174
681.193314	0.459511
681.531805	0.451229
681.870247	0.439651
682.208638	0.432082
682.546978	0.431050
682.885268	0.432684
683.223508	0.439019
683.561697	0.442636
683.899836	0.444964
684.237925	0.448791
684.575963	0.451159
684.913951	0.454149
685.251889	0.450146
685.589776	0.451912
685.927614	0.454502
686.265401	0.449074
686.603137	0.449978
686.940824	0.444599
687.278460	0.442565
687.616046	0.442087
687.953582	0.437168
688.291068	0.438605
688.628504	0.434235
688.965889	0.435682
689.303224	0.440506
689.640510	0.444395
689.977745	0.449934
690.314930	0.457520
690.652065	0.462408
690.989150	0.469857
691.326185	0.476450
691.663170	0.480907
692.000105	0.487847
692.336990	0.494775
692.673825	0.496991
693.010610	0.504499
693.347345	0.510183
693.684030	0.511270
694.020665	0.516089
694.357251	0.524581
694.693786	0.524843
695.030272	0.528526
695.366707	0.531857
695.703093	0.535643
696.039429	0.532466
696.375716	0.534974
696.711952	0.536940
697.048139	0.539496
697.384276	0.541456
697.720363	0.539999
698.056400	0.538780
698.392388	0.544757
698.728326	0.548017
699.064214	0.550237
699.400053	0.551101
699.735842	0.554562
700.071581	0.557628
700.407270	0.560309
700.742910	0.562671
701.078501	0.569695
701.414042	0.569468
701.749533	0.572735
702.084974	0.581680
702.420366	0.573498
702.755709	0.581196
703.091002	0.589081
703.426246	0.582239
703.761440	0.588076
704.096584	0.592876
704.431679	0.589691
704.766725	0.591756
705.101721	0.594020
705.436668	0.589966
705.771565	0.597195
706.106413	0.593581
706.441212	0.589295
706.775961	0.587788
707.110661	0.589908
707.445311	0.586636
707.779913	0.584272
708.114465	0.581873
708.448967	0.579697
708.783421	0.571179
709.117825	0.566482
709.452180	0.566777
709.786485	0.559435
710.120742	0.550285
710.454949	0.551761
710.789107	0.544279
711.123216	0.535337
711.457275	0.536568
711.791286	0.528161
712.125247	0.526159
712.459159	0.537366
712.793023	0.530108
713.126837	0.533838
713.460602	0.534014
713.794318	0.543744
714.127985	0.542409
714.461602	0.552855
714.795171	0.555813
715.128691	0.564379
715.462162	0.571049
715.795584	0.576939
716.128957	0.580097
716.462281	0.585520
716.795556	0.590611
717.128782	0.594191
717.461960	0.604784
717.795088	0.602589
718.128167	0.609569
718.461198	0.617802
718.794180	0.618500
719.127113	0.620869
719.459997	0.625075
719.792833	0.630504
720.125619	0.632401
720.458357	0.638022
720.791046	0.636999
721.123686	0.640835
721.456278	0.647400
721.788821	0.645046
722.121315	0.648775
722.453761	0.653349
722.786158	0.651664
723.118506	0.647231
723.450805	0.655884
723.783056	0.651939
724.115259	0.649198
724.447412	0.647645
724.779518	0.650350
725.111574	0.648647
725.443582	0.643515
725.775542	0.645906
726.107453	0.638455
726.439315	0.638265
726.771129	0.637489
727.102895	0.630820
727.434612	0.623092
727.766281	0.620516
728.097901	0.620172
728.429473	0.620486
728.760996	0.618552
729.092471	0.619102
729.423897	0.622119
729.755276	0.622170
730.086606	0.621650
730.417887	0.616348
730.749120	0.607331
731.080305	0.598355
731.411442	0.594375
731.742530	0.599325
732.073570	0.598178
732.404562	0.590430
732.735506	0.591747
733.066401	0.596497
733.397249	0.605822
733.728048	0.617358
734.058798	0.629334
734.389501	0.640290
734.720156	0.650356
735.050762	0.657989
735.381320	0.658251
735.711831	0.667653
736.042293	0.672683
736.372707	0.667833
736.703073	0.673897
737.033391	0.675720
737.363661	0.671933
737.693883	0.667801
738.024056	0.666663
738.354182	0.667301
738.684260	0.656947
739.014290	0.652561
739.344272	0.653400
739.674207	0.646493
740.004093	0.645867
740.333931	0.646964
740.663722	0.646789
740.993464	0.647113
741.323159	0.650452
741.652806	0.655780
741.982405	0.660513
742.311956	0.664533
742.641460	0.667251
742.970915	0.670911
743.300323	0.677917
743.629683	0.685772
743.958996	0.687005
744.288260	0.691572
744.617477	0.697491
744.946647	0.698187
745.275768	0.704015
745.604842	0.703012
745.933869	0.713680
746.262847	0.714743
746.591778	0.707307
746.920662	0.713931
747.249498	0.720879
747.578286	0.712014
747.907027	0.707112
748.235720	0.709616
748.564365	0.703622
748.892963	0.703145
749.221514	0.706137
749.550017	0.710806
749.878473	0.711533
750.206881	0.716828
750.535242	0.718496
750.863555	0.718163
751.191821	0.719320
751.520039	0.722652
751.848210	0.727619
752.176334	0.720586
752.504411	0.719756
752.832440	0.726624
753.160421	0.731479
753.488356	0.729171
753.816243	0.727133
754.144082	0.735581
754.471875	0.739353
754.799620	0.734617
755.127318	0.735586
755.454969	0.735668
755.782572	0.735071
756.110129	0.739439
756.437638	0.742245
756.765100	0.739338
757.092515	0.736927
757.419882	0.736003
757.747203	0.741589
758.074477	0.740219
758.401703	0.737906
758.728882	0.732038
759.056014	0.731366
759.383099	0.731248
759.710138	0.732009
760.037129	0.729206
760.364073	0.722223
760.690970	0.724825
761.017820	0.731226
761.344623	0.726065
761.671379	0.716595
761.998088	0.705193
762.324751	0.683448
762.651366	0.641430
762.977935	0.575740
763.304456	0.523827
763.630931	0.514657
763.957359	0.553018
764.283740	0.597592
764.610074	0.624239
764.936362	0.655110
765.262602	0.682309
765.588796	0.703232
765.914943	0.720234
766.241044	0.738275
766.567097	0.745221
766.893104	0.753980
767.219064	0.761250
767.544978	0.766633
767.870845	0.780978
768.196665	0.784186
768.522438	0.782754
768.848165	0.784059
769.173846	0.792183
769.499479	0.796943
769.825066	0.800047
770.150607	0.805891
770.476101	0.800162
770.801548	0.801461
771.126949	0.812761
771.452303	0.817012
771.777611	0.817170
772.102872	0.815131
772.428087	0.820054
772.753256	0.823634
773.078378	0.826071
773.403453	0.835048
773.728482	0.838200
774.053465	0.832671
774.378401	0.835658
774.703291	0.844287
775.028135	0.843697
775.352932	0.845004
775.677683	0.848073
776.002388	0.849478
776.327046	0.848384
776.651658	0.851238
776.976224	0.854413
777.300743	0.855360
777.625216	0.857949
777.949643	0.858395
778.274024	0.858592
778.598359	0.861111
778.922647	0.858663
779.246889	0.860443
779.571086	0.863287
779.895236	0.865512
780.219339	0.863551
780.543397	0.860167
780.867409	0.858240
781.191374	0.861138
781.515294	0.862166
781.839167	0.861500
782.162995	0.864176
782.486776	0.861132
782.810511	0.861405
783.134201	0.865400
783.457844	0.863376
783.781441	0.866973
784.104993	0.872090
784.428498	0.872870
784.751958	0.868863
785.075372	0.871028
785.398739	0.875032
785.722061	0.870683
786.045337	0.866646
786.368568	0.871933
786.691752	0.873874
787.014891	0.859941
787.337983	0.850791
787.661030	0.843358
787.984031	0.825711
788.306987	0.813957
788.629897	0.815934
788.952760	0.820384
789.275579	0.823829
789.598351	0.839052
789.921078	0.851747
790.243759	0.854767
790.566395	0.859422
790.888984	0.866576
791.211529	0.870768
791.534027	0.873704
791.856480	0.877288
792.178888	0.880768
792.501249	0.883833
792.823566	0.885277
793.145836	0.884254
793.468062	0.887372
793.790241	0.887099
794.112375	0.885669
794.434464	0.880617
794.756507	0.879742
795.078505	0.880352
795.400457	0.874296
795.722364	0.862000
796.044226	0.855524
796.366042	0.855352
796.687812	0.857784
797.009538	0.854200
797.331218	0.856655
797.652852	0.861797
797.974442	0.866529
798.295986	0.867165
798.617484	0.869184
798.938938	0.873107
799.260346	0.877322
799.581709	0.880696
799.903026	0.882119
800.224299	0.882250
800.545526	0.886475
800.866708	0.890752
801.187845	0.894035
801.508936	0.894076
801.829983	0.891876
802.150984	0.894695
802.471940	0.899981
802.792851	0.898736
803.113717	0.899272
803.434538	0.897944
803.755314	0.901537
804.076045	0.902503
804.396731	0.901856
804.717372	0.901486
805.037967	0.903042
805.358518	0.901703
805.679024	0.898339
805.999485	0.898674
806.319901	0.899276
806.640272	0.899743
806.960598	0.898702
807.280879	0.896054
807.601115	0.893956
807.921306	0.898358
808.241453	0.898547
808.561554	0.896791
808.881611	0.896887
809.201623	0.897864
809.521590	0.898567
809.841513	0.900266
810.161390	0.898708
810.481223	0.900402
810.801011	0.902905
811.120755	0.905336
811.440453	0.903801
811.760107	0.901696
812.079716	0.903234
812.399281	0.906482
812.718801	0.907770
813.038276	0.909551
813.357707	0.908964
813.677093	0.905946
813.996434	0.909289
814.315731	0.910879
814.634983	0.911214
814.954191	0.910113
815.273354	0.907582
815.592473	0.903214
815.911547	0.903156
816.230577	0.901422
816.549562	0.898176
816.868502	0.899559
817.187399	0.895276
817.506250	0.889884
817.825058	0.892514
818.143821	0.889360
818.462539	0.884246
818.781213	0.875698
819.099843	0.865980
819.418429	0.849618
819.736970	0.832821
820.055466	0.813166
820.373919	0.789134
820.692327	0.756715
821.010691	0.722519
821.329011	0.645922
821.647286	0.533376
821.965517	0.420946
822.283704	0.378391
822.601847	0.380317
822.919945	0.415771
823.237999	0.447871
823.556010	0.494779
823.873976	0.549617
824.191897	0.598952
824.509775	0.640751
824.827609	0.685376
825.145398	0.707958
825.463144	0.710350
825.780845	0.693204
826.098502	0.674937
826.416116	0.629983
826.733685	0.587010
827.051210	0.578901
827.368692	0.592815
827.686129	0.630486
828.003522	0.682405
828.320872	0.728953
828.638177	0.771806
828.955439	0.804543
829.272656	0.825416
829.589830	0.842411
829.906960	0.858263
830.224046	0.869318
830.541088	0.879873
830.858086	0.884205
831.175041	0.891053
831.491952	0.889475
831.808819	0.886744
832.125642	0.878893
832.442421	0.865523
832.759157	0.843794
833.075849	0.799325
833.392497	0.735575
833.709101	0.695463
834.025662	0.705391
834.342179	0.736515
834.658653	0.774992
834.975083	0.810766
835.291469	0.836111
835.607811	0.858104
835.924110	0.873075
836.240366	0.890540
836.556578	0.904008
836.872746	0.911104
837.188871	0.916737
837.504952	0.923021
837.820990	0.925418
838.136984	0.929910
838.452935	0.932255
838.768842	0.933663
839.084706	0.927193
839.400526	0.901991
839.716303	0.862401
840.032037	0.840926
840.347727	0.843549
840.663373	0.861746
840.978977	0.882772
841.294537	0.905059
841.610054	0.920001
841.925527	0.928009
842.240957	0.935665
842.556344	0.941212
842.871687	0.947938
843.186987	0.952087
843.502244	0.952469
843.817458	0.954318
844.132629	0.957231
844.447756	0.962717
844.762840	0.961658
845.077881	0.961703
845.392879	0.961054
845.707833	0.963975
846.022745	0.966393
846.337613	0.965954
846.652438	0.966868
846.967221	0.966549
847.281960	0.966530
847.596656	0.969509
847.911309	0.968140
848.225919	0.969294
848.540485	0.969979
848.855009	0.970160
849.169490	0.969775
849.483928	0.970134
849.798323	0.970696
850.112675	0.971511
850.426984	0.969750
850.741251	0.972261
851.055474	0.972226
851.369654	0.969372
851.683792	0.971138
851.997887	0.971217
852.311938	0.972651
852.625947	0.971296
852.939914	0.968495
853.253837	0.969708
853.567718	0.972872
853.881555	0.972143
854.195350	0.969798
854.509103	0.971101
854.822812	0.971200
855.136479	0.972288
855.450103	0.970125
855.763685	0.969388
856.077224	0.969788
856.390720	0.971301
856.704173	0.972325
857.017584	0.970387
857.330953	0.969408
857.644278	0.970062
857.957561	0.971778
858.270802	0.969333
858.584000	0.969275
858.897155	0.968694
859.210268	0.968885
859.523339	0.969036
859.836367	0.971444
860.149352	0.972155
860.462295	0.968198
860.775195	0.971953
861.088054	0.970773
861.400869	0.971510
861.713642	0.971100
862.026373	0.972233
862.339062	0.972129
862.651708	0.969679
862.964312	0.969897
863.276873	0.971195
863.589392	0.970132
863.901869	0.968751
864.214303	0.966814
864.526696	0.965997
864.839045	0.964928
865.151353	0.963429
865.463619	0.964767
865.775842	0.964956
866.088023	0.963527
866.400162	0.963958
866.712258	0.964789
867.024313	0.965358
867.336325	0.964855
867.648296	0.964882
867.960224	0.963344
868.272110	0.963509
868.583954	0.965824
868.895755	0.965391
869.207515	0.963480
869.519233	0.961794
869.830909	0.963272
870.142542	0.963746
870.454134	0.963990
870.765684	0.961701
871.077191	0.960246
871.388657	0.960861
871.700081	0.960108
872.011463	0.959475
872.322803	0.960249
872.634101	0.959427
872.945357	0.957342
873.256571	0.955887
873.567744	0.955457
873.878874	0.954043
874.189963	0.954195
874.501010	0.953391
874.812015	0.952130
875.122979	0.952992
875.433900	0.956372
875.744780	0.955636
876.055618	0.952484
876.366415	0.951519
876.677169	0.952896
876.987882	0.953698
877.298554	0.953690
877.609183	0.951017
877.919771	0.947332
878.230317	0.945048
878.540822	0.943343
878.851285	0.937615
879.161707	0.930545
879.472087	0.919242
879.782425	0.902819
880.092722	0.870492
880.402977	0.819816
880.713191	0.761394
881.023363	0.705191
881.333494	0.671862
881.643583	0.644108
881.953631	0.643736
882.263637	0.672401
882.573602	0.710840
882.883526	0.735305
883.193408	0.757287
883.503248	0.780360
883.813048	0.806111
884.122806	0.835007
884.432522	0.857585
884.742197	0.875581
885.051831	0.886875
885.361424	0.895966
885.670975	0.908377
885.980485	0.917508
886.289954	0.923738
886.599382	0.928745
886.908768	0.931705
887.218113	0.937061
887.527417	0.942090
887.836680	0.944240
888.145901	0.946922
888.455082	0.948369
888.764221	0.954084
889.073319	0.954427
889.382376	0.955305
889.691392	0.954587
890.000366	0.955232
890.309300	0.956229
890.618193	0.954647
890.927044	0.954685
891.235855	0.954702
891.544625	0.953237
891.853353	0.953814
892.162041	0.952008
892.470687	0.945557
892.779293	0.941492
893.087858	0.937866
893.396381	0.929953
893.704864	0.917365
894.013306	0.894446
894.321707	0.867934
894.630068	0.855494
894.938387	0.851575
895.246665	0.851322
895.554903	0.863538
895.863100	0.876200
896.171256	0.892146
896.479371	0.911881
896.787446	0.923864
897.095480	0.929201
897.403473	0.931839
897.711425	0.936497
898.019336	0.943735
898.327207	0.946612
898.635038	0.947272
898.942827	0.948540
899.250576	0.951321
899.558284	0.954558
899.865952	0.956606
900.173579	0.957059
900.481165	0.958647
900.788711	0.962361
901.096216	0.963830
901.403681	0.964365
901.711105	0.965556
902.018489	0.965747
902.325832	0.964988
902.633135	0.963870
902.940397	0.957552
903.247619	0.946469
903.554800	0.921936
903.861941	0.885199
904.169041	0.851068
904.476101	0.834998
904.783121	0.836453
905.090100	0.851456
905.397039	0.870546
905.703938	0.892602
906.010796	0.910777
906.317614	0.926917
906.624391	0.938261
906.931129	0.948185
907.237826	0.955032
907.544483	0.961299
907.851099	0.965634
908.157675	0.969966
908.464211	0.971330
908.770707	0.975322
909.077163	0.977125
909.383578	0.976271
909.689954	0.976860
909.996289	0.978121
910.302584	0.979591
910.608839	0.982556
910.915054	0.980160
911.221229	0.979895
911.527363	0.978804
911.833458	0.978274
912.139513	0.977957
912.445527	0.977179
912.751502	0.975384
913.057436	0.974480
913.363331	0.972088
913.669186	0.968738
913.975000	0.963481
914.280775	0.958097
914.586510	0.951998
914.892205	0.939551
915.197859	0.920468
915.503475	0.892512
915.809050	0.874618
916.114585	0.869741
916.420081	0.868286
916.725536	0.864916
917.030952	0.871522
917.336328	0.884323
917.641665	0.897500
917.946961	0.914015
918.252218	0.923700
918.557435	0.932620
918.862612	0.940084
919.167750	0.945808
919.472848	0.949668
919.777906	0.956048
920.082925	0.960552
920.387904	0.965656
920.692843	0.965587
920.997743	0.966788
921.302603	0.971214
921.607423	0.971551
921.912204	0.973001
922.216946	0.973433
922.521647	0.975947
922.826310	0.977834
923.130932	0.978135
923.435516	0.979657
923.740059	0.981119
924.044564	0.980149
924.349028	0.982702
924.653454	0.983947
924.957840	0.985537
925.262186	0.985122
925.566493	0.985196
925.870761	0.987135
926.174989	0.987432
926.479178	0.989435
926.783328	0.989964
927.087438	0.989480
927.391509	0.988765
927.695541	0.991411
927.999533	0.991590
928.303486	0.990640
928.607400	0.991237
928.911275	0.990628
929.215110	0.990920
929.518906	0.991284
929.822663	0.989600
930.126381	0.991668
930.430060	0.991708
930.733699	0.991622
931.037299	0.990695
931.340861	0.991403
931.644383	0.990698
931.947866	0.989658
932.251309	0.991601
932.554714	0.991400
932.858080	0.991217
933.161407	0.991329
933.464694	0.991703
933.767943	0.991201
934.071153	0.990749
934.374323	0.992017
934.677455	0.991419
934.980548	0.992025
935.283602	0.991050
935.586617	0.991528
935.889593	0.991781
936.192530	0.990917
936.495428	0.991787
936.798287	0.991974
937.101108	0.990430
937.403890	0.990633
937.706632	0.990160
938.009336	0.987908
938.312002	0.986721
938.614628	0.986220
938.917216	0.984293
939.219765	0.983508
939.522275	0.983406
939.824747	0.984750
940.127179	0.984713
940.429573	0.987149
940.731929	0.986139
941.034246	0.986086
941.336524	0.986240
941.638763	0.986957
941.940964	0.987970
942.243126	0.987776
942.545250	0.988854
942.847335	0.989134
943.149381	0.990354
943.451389	0.989801
943.753359	0.989221
944.055290	0.992539
944.357182	0.991179
944.659036	0.990313
944.960851	0.990429
945.262628	0.991183
945.564367	0.990903
945.866067	0.991770
946.167729	0.991274
946.469352	0.991413
946.770937	0.990644
947.072484	0.991965
947.373992	0.991057
947.675462	0.991144
947.976893	0.991558
948.278286	0.990946
948.579641	0.993486
948.880958	0.991593
949.182236	0.990858
949.483476	0.991289
949.784678	0.991135
950.085841	0.993301
950.386967	0.991619
950.688054	0.992537
950.989103	0.992983
951.290114	0.990193
951.591087	0.990592
951.892021	0.990307
952.192917	0.990901
952.493776	0.989369
952.794596	0.989020
953.095378	0.987763
953.396122	0.989187
953.696828	0.988017
953.997496	0.989353
954.298126	0.991183
954.598718	0.991426
954.899272	0.991003
955.199788	0.991374
955.500266	0.992313
955.800706	0.994560
956.101108	0.995904
956.401472	0.994380
956.701798	0.995350
957.002087	0.994331
957.302337	0.994467
957.602550	0.995517
957.902724	0.995628
958.202861	0.996310
958.502960	0.995983
958.803022	0.994361
959.103045	0.995755
959.403031	0.995644
959.702979	0.996137
960.002889	0.996596
960.302762	0.995307
960.602596	0.996997
960.902393	0.994604
961.202153	0.996862
961.501875	0.997365
961.801559	0.995388
962.101205	0.995966
962.400814	0.996097
962.700385	0.997436
962.999918	0.996980
963.299414	0.997071
963.598873	0.996600
963.898293	0.996394
964.197677	0.996705
964.497022	0.997780
964.796331	0.997703
965.095601	0.997775
965.394835	0.995810
965.694030	0.998498
965.993189	0.997880
966.292309	0.996733
966.591393	0.997631
966.890439	0.997847
967.189447	0.997087
967.488419	0.997674
967.787353	0.996097
968.086249	0.997121
968.385108	0.997847
968.683930	0.999182
968.982714	0.997733
969.281462	0.998272
969.580172	0.996259
969.878844	0.997530
970.177480	0.997259
970.476078	0.998104
970.774639	0.997379
971.073162	0.997753
971.371649	0.997286
971.670098	0.997248
971.968510	0.997813
972.266885	0.996016
972.565223	0.996609
972.863524	0.997076
973.161788	0.997324
973.460014	0.998832
973.758204	0.997207
974.056356	0.997795
974.354471	0.995189
974.652550	0.996612
974.950591	0.996487
975.248595	0.996410
975.546563	0.997996
975.844493	0.998621
976.142386	0.997498
976.440243	0.997507
976.738062	0.997600
977.035845	0.998634
977.333590	0.996852
977.631299	0.998206
977.928971	0.997180
978.226606	0.997120
978.524204	0.997734
978.821765	0.998119
979.119290	0.996555
979.416777	0.996732
979.714228	0.998184
980.011642	0.996528
980.309020	0.997953
980.606360	0.997057
980.903664	0.999277
981.200931	0.997484
981.498162	0.995520
981.795356	0.994946
982.092513	0.995230
982.389633	0.996017
982.686717	0.992265
982.983764	0.992443
983.280775	0.991037
983.577749	0.991809
983.874686	0.993279
984.171587	0.992500
984.468451	0.995393
984.765279	0.995380
985.062070	0.994960
985.358824	0.995715
985.655543	0.995065
985.952224	0.996546
986.248869	0.996526
986.545478	0.997681
986.842050	0.999397
987.138586	0.995463
987.435086	0.997257
987.731549	0.999014
988.027975	0.997506
988.324366	0.997829
988.620719	0.998232
988.917037	0.995928
989.213318	0.998534
989.509563	0.998654
989.805772	0.998383
990.101944	0.999118
990.398080	0.997271
990.694180	0.997165
990.990244	0.997144
991.286271	0.998471
991.582262	0.998836
991.878217	0.997578
992.174136	0.998834
992.470019	0.998799
992.765865	0.998661
993.061676	0.998212
993.357450	0.998757
993.653188	0.997330
993.948890	0.997843
994.244556	0.998063
994.540186	0.997687
994.835780	0.995696
995.131337	0.997639
995.426859	0.996786
995.722345	0.998252
996.017795	0.995813
996.313208	0.996811
996.608586	0.995988
996.903928	0.996939
997.199234	0.996793
997.494504	0.997617
997.789738	0.997305
998.084936	0.997547
998.380099	0.997932
998.675225	0.998140
998.970316	0.999420
999.265371	0.998445
999.560390	0.997502
999.855373	0.998665
1000.150320	0.998742
1000.445232	0.999539
1000.740108	0.998717
1001.034948	0.998413
1001.329752	0.998524
1001.624521	0.999378
1001.919254	0.999223
1002.213951	0.998723
1002.508613	0.998756
1002.803239	0.999483
1003.097829	0.999339
1003.392384	0.998801
1003.686903	0.998758
1003.981386	0.999015
1004.275834	0.998923
1004.570246	0.999196
1004.864623	0.999829
1005.158964	0.999729
1005.453270	0.998868
1005.747540	0.996937
1006.041775	0.999191
1006.335974	0.998807
1006.630138	0.999506
1006.924266	1.000046
1007.218359	0.999886
1007.512416	0.999230
1007.806438	0.999244
1008.100425	0.999220
1008.394376	0.998082
1008.688292	0.998398
1008.982172	1.000802
1009.276017	0.998894
1009.569827	0.999016
1009.863602	0.999536
1010.157341	0.999873
1010.451045	0.999680
1010.744714	0.999746
1011.038347	0.998576
1011.331945	1.000049
1011.625508	0.997935
1011.919036	1.000657
1012.212528	0.999124
1012.505986	0.998849
1012.799408	0.998603
1013.092795	0.999896
1013.386147	0.998616
1013.679464	0.998937
1013.972745	0.999447
1014.265992	0.997780
1014.559204	0.999255
1014.852380	0.999330
1015.145521	0.999733
1015.438628	1.000226
1015.731699	0.998739
1016.024736	0.999638
1016.317737	0.999808
1016.610703	0.999855
1016.903635	0.999555
1017.196531	0.998464
1017.489393	1.000231
1017.782219	0.999183
1018.075011	0.998021
1018.367768	0.999680
1018.660490	0.999423
1018.953177	0.999423
1019.245829	0.999423
