Dividing Wavelength (nm)	Counts (n)	Blue Motor Position (mm): 0.000000	Red Motor Position (mm): 38.700000	
326.493990	1.000925
326.888308	1.000925
327.282561	1.000925
327.676750	1.000018
328.070874	0.999522
328.464933	0.999911
328.858929	1.000037
329.252859	0.999159
329.646726	0.999612
330.040528	1.000131
330.434265	0.999242
330.827938	1.000487
331.221547	1.000938
331.615091	0.999685
332.008571	1.000169
332.401986	1.000099
332.795338	1.000136
333.188625	0.998099
333.581847	1.001069
333.975006	1.000166
334.368100	0.999717
334.761129	1.000049
335.154095	1.000184
335.546996	0.999604
335.939833	0.995475
336.332606	0.996512
336.725315	0.996907
337.117960	0.997408
337.510540	0.996984
337.903056	0.997997
338.295508	0.997380
338.687896	0.998163
339.080220	0.998654
339.472480	0.997395
339.864676	0.997488
340.256807	0.998008
340.648875	0.998926
341.040879	0.998106
341.432818	0.997061
341.824694	0.997426
342.216506	0.998231
342.608253	0.997114
342.999937	0.997732
343.391557	0.997052
343.783113	0.997142
344.174605	0.997665
344.566033	0.998161
344.957397	0.997052
345.348697	0.997411
345.739934	0.998098
346.131106	0.996903
346.522215	0.997304
346.913260	0.997552
347.304241	0.997385
347.695159	0.997707
348.086012	0.996462
348.476802	0.997744
348.867528	0.996542
349.258191	0.996795
349.648789	0.997822
350.039324	0.998261
350.429796	0.997234
350.820203	0.998190
351.210548	0.998206
351.600828	0.996602
351.991045	0.997373
352.381198	0.997439
352.771288	0.996050
353.161314	0.998046
353.551276	0.998434
353.941175	0.996977
354.331010	0.996877
354.720782	0.998205
355.110490	0.996788
355.500135	0.997913
355.889717	0.997195
356.279235	0.997062
356.668689	0.997377
357.058080	0.996014
357.447408	0.997851
357.836672	0.997850
358.225873	0.998457
358.615010	0.997283
359.004084	0.998167
359.393095	0.996666
359.782043	0.997873
360.170927	0.999070
360.559748	0.997846
360.948505	0.997241
361.337199	0.996512
361.725830	0.998305
362.114398	0.997193
362.502903	0.998793
362.891344	0.998358
363.279722	0.998085
363.668037	0.998465
364.056289	0.996642
364.444478	0.999596
364.832603	0.997886
365.220665	0.997005
365.608665	0.997902
365.996601	0.997794
366.384474	0.997456
366.772284	0.997282
367.160031	0.996355
367.547715	0.996428
367.935336	0.997641
368.322893	0.997511
368.710388	0.997245
369.097820	0.997454
369.485189	0.996828
369.872495	0.997483
370.259738	0.995551
370.646918	0.996883
371.034035	0.998363
371.421090	0.998010
371.808081	0.996265
372.195010	0.997921
372.581875	0.998146
372.968678	0.998184
373.355418	0.996759
373.742096	0.997046
374.128710	0.997951
374.515262	0.997706
374.901751	0.997856
375.288177	0.997143
375.674540	0.998432
376.060841	0.997052
376.447079	0.997150
376.833254	0.996804
377.219367	0.997281
377.605417	0.997894
377.991404	0.997766
378.377329	0.998188
378.763191	0.997174
379.148991	0.998469
379.534727	0.998779
379.920402	0.998314
380.306013	0.997613
380.691563	0.998560
381.077049	0.997407
381.462474	0.998942
381.847835	0.997825
382.233134	0.997393
382.618371	0.998819
383.003545	0.998732
383.388657	0.998402
383.773706	0.999687
384.158693	0.998586
384.543618	0.998178
384.928480	0.999408
385.313280	0.998241
385.698017	0.999362
386.082692	0.999258
386.467305	0.998773
386.851856	0.997966
387.236344	0.998059
387.620770	0.998577
388.005133	0.998251
388.389435	0.999525
388.773674	0.998014
389.157851	0.998866
389.541965	0.999038
389.926018	0.998989
390.310008	0.999759
390.693936	0.999267
391.077802	0.998821
391.461606	0.998707
391.845348	0.999079
392.229027	1.000541
392.612645	0.999577
392.996200	1.000600
393.379694	0.999092
393.763125	0.999838
394.146494	0.999306
394.529801	0.998500
394.913047	1.000195
395.296230	0.999250
395.679351	0.999256
396.062410	0.999131
396.445408	0.999604
396.828343	0.999076
397.211217	0.999617
397.594028	1.000577
397.976778	0.999251
398.359466	0.998413
398.742092	0.999072
399.124656	0.999175
399.507158	0.999227
399.889598	1.000154
400.271977	0.999215
400.654294	1.000005
401.036549	0.999539
401.418742	0.999600
401.800874	0.998846
402.182944	0.999370
402.564952	0.999279
402.946898	0.999765
403.328783	0.999388
403.710606	0.999344
404.092367	0.998968
404.474067	1.000512
404.855705	0.999817
405.237282	0.999799
405.618797	0.999835
406.000250	0.999451
406.381642	0.999897
406.762972	0.999670
407.144240	1.000335
407.525447	1.000506
407.906593	0.999891
408.287677	0.999972
408.668700	1.000001
409.049661	0.998047
409.430560	1.000128
409.811399	0.998992
410.192176	0.999683
410.572891	0.998489
410.953545	0.999882
411.334138	0.998352
411.714669	0.999434
412.095139	0.998876
412.475547	1.000481
412.855894	0.999832
413.236180	1.000210
413.616405	0.999865
413.996568	1.000808
414.376670	0.999456
414.756711	0.999900
415.136691	0.999213
415.516609	1.000596
415.896466	0.999237
416.276262	0.998361
416.655997	1.000517
417.035670	0.999828
417.415283	1.000120
417.794834	0.999632
418.174324	1.000156
418.553753	0.999776
418.933121	0.999950
419.312428	1.000537
419.691674	0.999146
420.070859	1.000552
420.449983	1.000131
420.829045	0.999998
421.208047	1.000671
421.586988	1.001325
421.965867	0.999857
422.344686	1.000137
422.723444	0.999912
423.102141	1.000073
423.480777	1.000007
423.859352	1.000018
424.237866	0.999843
424.616319	1.000400
424.994712	0.999706
425.373044	1.000208
425.751314	1.001121
426.129524	0.999738
426.507673	1.000207
426.885762	1.000794
427.263789	1.000780
427.641756	1.000220
428.019662	1.001386
428.397508	0.999927
428.775292	1.000304
429.153016	1.000091
429.530679	1.000110
429.908282	1.001290
430.285824	0.999768
430.663305	0.999240
431.040726	0.999927
431.418086	1.001564
431.795385	1.000635
432.172624	0.999482
432.549802	1.000455
432.926920	1.000262
433.303977	0.999687
433.680974	1.000463
434.057910	1.000034
434.434786	1.001114
434.811601	0.999705
435.188355	1.000072
435.565050	0.999593
435.941683	1.000270
436.318257	1.001174
436.694770	0.999710
437.071222	1.000317
437.447614	1.000051
437.823946	1.000730
438.200218	1.000428
438.576429	0.999707
438.952580	1.000429
439.328670	0.999612
439.704700	1.000432
440.080670	1.001568
440.456580	0.999983
440.832429	0.999806
441.208218	1.000335
441.583947	0.999886
441.959616	1.000405
442.335224	1.000592
442.710773	1.000709
443.086261	1.000097
443.461689	0.999780
443.837057	0.999220
444.212365	1.000786
444.587612	0.999868
444.962800	1.000610
445.337927	1.000188
445.712995	1.000396
446.088002	1.000663
446.462949	1.000570
446.837837	1.000552
447.212664	1.000162
447.587431	1.001109
447.962139	1.000082
448.336786	1.000162
448.711374	1.001389
449.085901	1.000163
449.460369	1.000072
449.834776	0.999841
450.209124	1.000485
450.583412	1.000655
450.957640	1.000929
451.331808	1.000246
451.705917	1.001100
452.079965	0.999464
452.453954	1.000891
452.827883	1.000262
453.201752	1.000433
453.575562	1.001438
453.949311	1.000223
454.323001	1.000517
454.696632	1.000438
455.070202	1.000004
455.443713	0.999748
455.817164	1.000567
456.190556	1.000097
456.563888	1.001048
456.937160	1.000913
457.310373	0.999994
457.683526	1.000118
458.056619	1.001015
458.429653	1.001533
458.802628	0.999780
459.175542	0.999908
459.548398	1.000207
459.921194	1.000132
460.293930	1.000169
460.666607	1.000039
461.039224	0.999788
461.411782	1.000319
461.784280	1.000113
462.156719	1.001315
462.529099	1.000494
462.901419	1.000574
463.273680	1.000469
463.645882	1.000680
464.018024	1.000671
464.390106	1.000293
464.762130	1.001029
465.134094	1.001217
465.505999	1.001282
465.877845	1.000452
466.249631	1.001667
466.621358	1.001018
466.993026	1.001066
467.364634	1.000775
467.736184	1.001305
468.107674	1.000217
468.479105	1.000257
468.850477	1.000446
469.221790	1.000999
469.593043	1.000980
469.964238	1.001664
470.335373	1.000403
470.706449	1.000340
471.077467	1.001095
471.448425	1.000681
471.819324	1.001736
472.190164	1.000346
472.560945	1.001107
472.931667	1.000549
473.302330	1.000618
473.672934	1.000249
474.043479	1.000381
474.413965	1.000183
474.784393	1.001056
475.154761	1.000676
475.525070	0.999962
475.895321	1.001164
476.265513	1.000334
476.635645	1.000490
477.005719	1.000511
477.375734	1.000272
477.745691	1.000485
478.115588	1.001212
478.485427	1.000561
478.855207	1.000394
479.224928	1.000950
479.594591	1.000820
479.964194	1.001392
480.333739	1.000971
480.703226	1.000788
481.072653	1.001521
481.442022	1.000967
481.811333	1.001114
482.180584	1.001781
482.549777	1.000533
482.918912	1.000688
483.287988	1.001199
483.657005	1.000843
484.025964	1.001793
484.394864	1.001036
484.763706	1.001250
485.132489	1.001110
485.501213	1.000378
485.869879	1.001189
486.238487	1.000767
486.607036	1.000863
486.975527	1.000634
487.343959	1.000508
487.712333	1.000024
488.080648	1.000596
488.448905	1.000129
488.817104	1.000820
489.185244	1.000435
489.553326	1.001174
489.921350	1.000414
490.289315	1.000552
490.657222	1.001367
491.025070	1.000470
491.392861	1.001484
491.760593	1.000848
492.128267	1.000723
492.495883	1.000591
492.863440	1.000571
493.230939	1.000724
493.598380	1.000114
493.965763	1.000108
494.333088	1.000970
494.700354	0.999899
495.067563	1.000599
495.434713	1.000524
495.801805	1.001475
496.168839	1.000976
496.535815	1.000287
496.902733	1.000040
497.269593	1.000538
497.636395	1.001258
498.003139	1.000089
498.369825	1.000839
498.736453	1.000610
499.103023	0.999362
499.469535	1.000055
499.835989	1.000426
500.202385	1.000255
500.568723	0.999873
500.935003	1.000246
501.301226	1.000233
501.667390	1.000775
502.033497	1.000683
502.399546	1.001119
502.765537	0.999770
503.131470	1.000152
503.497345	0.999999
503.863163	1.001375
504.228923	1.000509
504.594625	1.000362
504.960269	1.000814
505.325856	1.000446
505.691385	1.000418
506.056856	0.999986
506.422270	0.999882
506.787625	1.000540
507.152924	1.000566
507.518164	1.000132
507.883347	1.000187
508.248472	0.999954
508.613540	1.000494
508.978550	1.000782
509.343503	0.999461
509.708398	1.000066
510.073236	1.000496
510.438016	1.000692
510.802738	1.000104
511.167403	1.000285
511.532010	1.000062
511.896561	1.000168
512.261053	1.000991
512.625488	1.000081
512.989866	1.000134
513.354186	0.999571
513.718449	1.000010
514.082655	0.999772
514.446803	0.999932
514.810894	1.000354
515.174927	1.000071
515.538904	0.999775
515.902822	0.999279
516.266684	0.999870
516.630488	1.000594
516.994235	0.999813
517.357925	0.999903
517.721558	0.999993
518.085133	0.999265
518.448651	1.000470
518.812112	0.999487
519.175516	0.999865
519.538863	1.000403
519.902152	1.000154
520.265385	0.999276
520.628560	1.000015
520.991678	0.999605
521.354739	0.999873
521.717743	0.999446
522.080690	0.999674
522.443580	0.999619
522.806413	0.999246
523.169189	0.999432
523.531908	0.998567
523.894569	0.999260
524.257174	0.999854
524.619722	0.999684
524.982213	0.999436
525.344647	0.999420
525.707025	0.999265
526.069345	0.999089
526.431608	0.998924
526.793815	0.999701
527.155964	0.998924
527.518057	0.999461
527.880093	0.999468
528.242072	0.999012
528.603995	0.998930
528.965860	0.999798
529.327669	0.999206
529.689421	0.998723
530.051117	0.999429
530.412755	0.998656
530.774337	0.999444
531.135862	0.998707
531.497331	0.998496
531.858743	0.998973
532.220098	0.998964
532.581396	0.999400
532.942638	0.998626
533.303824	0.998756
533.664953	0.998503
534.026025	0.998612
534.387040	0.998025
534.747999	0.998336
535.108902	0.997963
535.469748	0.997870
535.830537	0.998289
536.191270	0.997924
536.551947	0.998043
536.912567	0.997882
537.273131	0.998636
537.633638	0.997014
537.994089	0.998055
538.354483	0.997926
538.714821	0.997310
539.075103	0.997087
539.435328	0.997546
539.795497	0.997534
540.155609	0.996994
540.515665	0.997100
540.875665	0.997423
541.235609	0.997386
541.595496	0.997039
541.955328	0.996609
542.315102	0.997065
542.674821	0.996649
543.034483	0.996152
543.394090	0.996074
543.753640	0.996695
544.113134	0.996174
544.472571	0.996759
544.831953	0.996585
545.191278	0.995741
545.550548	0.995817
545.909761	0.995039
546.268918	0.994961
546.628019	0.995295
546.987064	0.994979
547.346053	0.995553
547.704986	0.994885
548.063863	0.994397
548.422684	0.994047
548.781449	0.994592
549.140158	0.993093
549.498811	0.993556
549.857408	0.992768
550.215949	0.992662
550.574434	0.992460
550.932864	0.992315
551.291237	0.992363
551.649555	0.991929
552.007817	0.991642
552.366022	0.991020
552.724173	0.991160
553.082267	0.990867
553.440305	0.989676
553.798288	0.989871
554.156215	0.989090
554.514086	0.989218
554.871902	0.988908
555.229661	0.988079
555.587365	0.987836
555.945014	0.987883
556.302606	0.986381
556.660143	0.986508
557.017625	0.985674
557.375050	0.984912
557.732421	0.984261
558.089735	0.984237
558.446994	0.983824
558.804197	0.982968
559.161345	0.982835
559.518437	0.982517
559.875474	0.980781
560.232455	0.980404
560.589381	0.980283
560.946251	0.977849
561.303065	0.977812
561.659825	0.978127
562.016528	0.976000
562.373177	0.976477
562.729770	0.975193
563.086307	0.974497
563.442789	0.973279
563.799216	0.972920
564.155587	0.971261
564.511904	0.970099
564.868164	0.969065
565.224370	0.969328
565.580520	0.967722
565.936615	0.967083
566.292654	0.965052
566.648638	0.964685
567.004567	0.962956
567.360441	0.963207
567.716260	0.961274
568.072023	0.959933
568.427732	0.958253
568.783385	0.957926
569.138982	0.955984
569.494525	0.953948
569.850013	0.953473
570.205445	0.951631
570.560823	0.951229
570.916145	0.949256
571.271412	0.947842
571.626625	0.946295
571.981782	0.944836
572.336884	0.944153
572.691931	0.942176
573.046923	0.939750
573.401860	0.939046
573.756743	0.937399
574.111570	0.934789
574.466342	0.934130
574.821059	0.931583
575.175722	0.930378
575.530330	0.928294
575.884882	0.926870
576.239380	0.925187
576.593823	0.923461
576.948211	0.920657
577.302544	0.919933
577.656823	0.917165
578.011047	0.915689
578.365216	0.913291
578.719330	0.911034
579.073389	0.909526
579.427394	0.907592
579.781344	0.905872
580.135239	0.903386
580.489080	0.901750
580.842866	0.899150
581.196597	0.896430
581.550273	0.893642
581.903895	0.891543
582.257463	0.889112
582.610975	0.887009
582.964434	0.885403
583.317837	0.883362
583.671186	0.880811
584.024481	0.877222
584.377721	0.875894
584.730906	0.873978
585.084037	0.870811
585.437113	0.869079
585.790135	0.865981
586.143103	0.863076
586.496016	0.862085
586.848874	0.857495
587.201679	0.855252
587.554428	0.853047
587.907124	0.849565
588.259765	0.847885
588.612352	0.844441
588.964884	0.843534
589.317362	0.839461
589.669786	0.836956
590.022155	0.834263
590.374470	0.830391
590.726731	0.828890
591.078937	0.826078
591.431090	0.821646
591.783188	0.821467
592.135232	0.818340
592.487222	0.816510
592.839157	0.812516
593.191038	0.811087
593.542866	0.808186
593.894639	0.806849
594.246358	0.802611
594.598022	0.799811
594.949633	0.798134
595.301190	0.794678
595.652692	0.792630
596.004141	0.788720
596.355535	0.788660
596.706876	0.785375
597.058162	0.782866
597.409395	0.779691
597.760573	0.775523
598.111698	0.773731
598.462768	0.770665
598.813785	0.768908
599.164748	0.765904
599.515657	0.763761
599.866511	0.760498
600.217312	0.757272
600.568060	0.755769
600.918753	0.751408
601.269392	0.749250
601.619978	0.747043
601.970510	0.743564
602.320988	0.740532
602.671412	0.735646
603.021783	0.734710
603.372100	0.732508
603.722363	0.728242
604.072572	0.725512
604.422728	0.722889
604.772830	0.720184
605.122878	0.716138
605.472872	0.714368
605.822813	0.709934
606.172701	0.708372
606.522534	0.704852
606.872314	0.701674
607.222041	0.698443
607.571714	0.695298
607.921333	0.692974
608.270899	0.689169
608.620411	0.684619
608.969870	0.683922
609.319276	0.680715
609.668627	0.677644
610.017926	0.673761
610.367171	0.669732
610.716362	0.667397
611.065500	0.664780
611.414585	0.660649
611.763616	0.659466
612.112594	0.655389
612.461518	0.652126
612.810389	0.648363
613.159207	0.646207
613.507971	0.644542
613.856682	0.639080
614.205340	0.638145
614.553945	0.632463
614.902496	0.631843
615.250994	0.628228
615.599439	0.625638
615.947830	0.622230
616.296169	0.619980
616.644454	0.616330
616.992686	0.614349
617.340864	0.610076
617.688990	0.608717
618.037063	0.605065
618.385082	0.603525
618.733048	0.598224
619.080961	0.597069
619.428821	0.594846
619.776628	0.590815
620.124382	0.589426
620.472083	0.585944
620.819731	0.584031
621.167326	0.582981
621.514868	0.580210
621.862357	0.580863
622.209793	0.577505
622.557176	0.576005
622.904506	0.573766
623.251783	0.573449
623.599007	0.571813
623.946179	0.568675
624.293297	0.566957
624.640363	0.566886
624.987376	0.564795
625.334336	0.565297
625.681243	0.562837
626.028097	0.560870
626.374899	0.559740
626.721647	0.556520
627.068343	0.557315
627.414987	0.554920
627.761577	0.554139
628.108115	0.551265
628.454600	0.552249
628.801032	0.546745
629.147412	0.547534
629.493739	0.544366
629.840014	0.545365
630.186236	0.541001
630.532405	0.542291
630.878521	0.538836
631.224585	0.538100
631.570597	0.539604
631.916556	0.535391
632.262462	0.534055
632.608316	0.533143
632.954117	0.531481
633.299866	0.531024
633.645562	0.528657
633.991206	0.530053
634.336797	0.530095
634.682336	0.529729
635.027823	0.529007
635.373257	0.526997
635.718639	0.527847
636.063968	0.524824
636.409245	0.527401
636.754470	0.525145
637.099642	0.525909
637.444762	0.526198
637.789829	0.523249
638.134845	0.524265
638.479808	0.523499
638.824719	0.521291
639.169577	0.523261
639.514383	0.519347
639.859137	0.521688
640.203839	0.520704
640.548489	0.518289
640.893086	0.518634
641.237632	0.518289
641.582125	0.515227
641.926566	0.514702
642.270955	0.513575
642.615292	0.512288
642.959576	0.510016
643.303809	0.508972
643.647990	0.507282
643.992118	0.506123
644.336195	0.508580
644.680219	0.504946
645.024192	0.504733
645.368112	0.497969
645.711981	0.495666
646.055797	0.491055
646.399562	0.492139
646.743274	0.484094
647.086935	0.481236
647.430544	0.480789
647.774101	0.478536
648.117606	0.476756
648.461059	0.475576
648.804460	0.476111
649.147810	0.479143
649.491108	0.479079
649.834354	0.479004
650.177548	0.482180
650.520690	0.485347
650.863781	0.485195
651.206820	0.483130
651.549807	0.486417
651.892742	0.488931
652.235626	0.487137
652.578458	0.486510
652.921238	0.490854
653.263967	0.487946
653.606644	0.490720
653.949269	0.489188
654.291843	0.492252
654.634365	0.487552
654.976836	0.489871
655.319255	0.489129
655.661622	0.489738
656.003938	0.487998
656.346203	0.490433
656.688416	0.487702
657.030577	0.489539
657.372687	0.490475
657.714746	0.490166
658.056753	0.487088
658.398708	0.489427
658.740612	0.489558
659.082465	0.485945
659.424266	0.485517
659.766016	0.483676
660.107715	0.485823
660.449362	0.484080
660.790958	0.483724
661.132503	0.483741
661.473996	0.480359
661.815438	0.480753
662.156829	0.480214
662.498168	0.480247
662.839456	0.480975
663.180693	0.477714
663.521879	0.477848
663.863013	0.478051
664.204097	0.475712
664.545129	0.472473
664.886110	0.472034
665.227040	0.469099
665.567918	0.471165
665.908746	0.468587
666.249522	0.467811
666.590248	0.468205
666.930922	0.466154
667.271545	0.464445
667.612118	0.464300
667.952639	0.465423
668.293109	0.463395
668.633528	0.465273
668.973896	0.464696
669.314213	0.464633
669.654480	0.465459
669.994695	0.464735
670.334859	0.465249
670.674973	0.464896
671.015035	0.464985
671.355047	0.464309
671.695008	0.464840
672.034918	0.466158
672.374777	0.465308
672.714585	0.466414
673.054342	0.465897
673.394049	0.465430
673.733705	0.462550
674.073310	0.463497
674.412864	0.466091
674.752368	0.466147
675.091820	0.465862
675.431223	0.469637
675.770574	0.469167
676.109875	0.471280
676.449125	0.471161
676.788324	0.473415
677.127473	0.477743
677.466571	0.477006
677.805619	0.478400
678.144616	0.478997
678.483562	0.480583
678.822458	0.482393
679.161303	0.483143
679.500098	0.483379
679.838842	0.485102
680.177535	0.483929
680.516179	0.482504
680.854771	0.480832
681.193314	0.474516
681.531805	0.466521
681.870247	0.455418
682.208638	0.447562
682.546978	0.446354
682.885268	0.447464
683.223508	0.453364
683.561697	0.456887
683.899836	0.458919
684.237925	0.462633
684.575963	0.464663
684.913951	0.467925
685.251889	0.462981
685.589776	0.465068
685.927614	0.466787
686.265401	0.461603
686.603137	0.462274
686.940824	0.456775
687.278460	0.455373
687.616046	0.454553
687.953582	0.449296
688.291068	0.450513
688.628504	0.446661
688.965889	0.448680
689.303224	0.452280
689.640510	0.455892
689.977745	0.461086
690.314930	0.468987
690.652065	0.472775
690.989150	0.480108
691.326185	0.486176
691.663170	0.489832
692.000105	0.496779
692.336990	0.503643
692.673825	0.505995
693.010610	0.513080
693.347345	0.517600
693.684030	0.518698
694.020665	0.523804
694.357251	0.532199
694.693786	0.532111
695.030272	0.535915
695.366707	0.538576
695.703093	0.542556
696.039429	0.539913
696.375716	0.542009
696.711952	0.544276
697.048139	0.546111
697.384276	0.547605
697.720363	0.545993
698.056400	0.545220
698.392388	0.550765
698.728326	0.554017
699.064214	0.556132
699.400053	0.556522
699.735842	0.559702
700.071581	0.562411
700.407270	0.566074
700.742910	0.567790
701.078501	0.574382
701.414042	0.573728
701.749533	0.577670
702.084974	0.585790
702.420366	0.577661
702.755709	0.586085
703.091002	0.593329
703.426246	0.586987
703.761440	0.592802
704.096584	0.597734
704.431679	0.594355
704.766725	0.596483
705.101721	0.598244
705.436668	0.593511
705.771565	0.600839
706.106413	0.597659
706.441212	0.592637
706.775961	0.591705
707.110661	0.594566
707.445311	0.590668
707.779913	0.588073
708.114465	0.586292
708.448967	0.583316
708.783421	0.574790
709.117825	0.570075
709.452180	0.569220
709.786485	0.563941
710.120742	0.553810
710.454949	0.555875
710.789107	0.547514
711.123216	0.539329
711.457275	0.540547
711.791286	0.531518
712.125247	0.531062
712.459159	0.541162
712.793023	0.534517
713.126837	0.537866
713.460602	0.538710
713.794318	0.547609
714.127985	0.546632
714.461602	0.555759
714.795171	0.559760
715.128691	0.566702
715.462162	0.574813
715.795584	0.579684
716.128957	0.582972
716.462281	0.588956
716.795556	0.592836
717.128782	0.597507
717.461960	0.606906
717.795088	0.605258
718.128167	0.611572
718.461198	0.620315
718.794180	0.621093
719.127113	0.624484
719.459997	0.627395
719.792833	0.633126
720.125619	0.634732
720.458357	0.640495
720.791046	0.639360
721.123686	0.642477
721.456278	0.650280
721.788821	0.647429
722.121315	0.651614
722.453761	0.656098
722.786158	0.653133
723.118506	0.650342
723.450805	0.657240
723.783056	0.654083
724.115259	0.650640
724.447412	0.650449
724.779518	0.651858
725.111574	0.651734
725.443582	0.647317
725.775542	0.648765
726.107453	0.640410
726.439315	0.640598
726.771129	0.639275
727.102895	0.632955
727.434612	0.625151
727.766281	0.623045
728.097901	0.622677
728.429473	0.623106
728.760996	0.621216
729.092471	0.620880
729.423897	0.624554
729.755276	0.623273
730.086606	0.623970
730.417887	0.618608
730.749120	0.609286
731.080305	0.599489
731.411442	0.596378
731.742530	0.601200
732.073570	0.600433
732.404562	0.592955
732.735506	0.593967
733.066401	0.598603
733.397249	0.608439
733.728048	0.619557
734.058798	0.631212
734.389501	0.642437
734.720156	0.651240
735.050762	0.659293
735.381320	0.661036
735.711831	0.670271
736.042293	0.674470
736.372707	0.669684
736.703073	0.675040
737.033391	0.677778
737.363661	0.673676
737.693883	0.669924
738.024056	0.668663
738.354182	0.669118
738.684260	0.657710
739.014290	0.654077
739.344272	0.654838
739.674207	0.648446
740.004093	0.648607
740.333931	0.648800
740.663722	0.648930
740.993464	0.648847
741.323159	0.652678
741.652806	0.657606
741.982405	0.661546
742.311956	0.667055
742.641460	0.668995
742.970915	0.672404
743.300323	0.680623
743.629683	0.687540
743.958996	0.688102
744.288260	0.692626
744.617477	0.698340
744.946647	0.700406
745.275768	0.705427
745.604842	0.705703
745.933869	0.715284
746.262847	0.716307
746.591778	0.708922
746.920662	0.715725
747.249498	0.721641
747.578286	0.712306
747.907027	0.709539
748.235720	0.710725
748.564365	0.705296
748.892963	0.705136
749.221514	0.707445
749.550017	0.712785
749.878473	0.712225
750.206881	0.718424
750.535242	0.720344
750.863555	0.719938
751.191821	0.720684
751.520039	0.724312
751.848210	0.729128
752.176334	0.721571
752.504411	0.721182
752.832440	0.728623
753.160421	0.732761
753.488356	0.731111
753.816243	0.728177
754.144082	0.737009
754.471875	0.741051
754.799620	0.736073
755.127318	0.737430
755.454969	0.737161
755.782572	0.736453
756.110129	0.741472
756.437638	0.743612
756.765100	0.740472
757.092515	0.738667
757.419882	0.736974
757.747203	0.742376
758.074477	0.741555
758.401703	0.738784
758.728882	0.733861
759.056014	0.733114
759.383099	0.732811
759.710138	0.733566
760.037129	0.729762
760.364073	0.724033
760.690970	0.726145
761.017820	0.731543
761.344623	0.727450
761.671379	0.718405
761.998088	0.706909
762.324751	0.685031
762.651366	0.643193
762.977935	0.577728
763.304456	0.525533
763.630931	0.516652
763.957359	0.555555
764.283740	0.599126
764.610074	0.625967
764.936362	0.656421
765.262602	0.683465
765.588796	0.703859
765.914943	0.721696
766.241044	0.739018
766.567097	0.746372
766.893104	0.754507
767.219064	0.762737
767.544978	0.768249
767.870845	0.781789
768.196665	0.785189
768.522438	0.783417
768.848165	0.784942
769.173846	0.793731
769.499479	0.797732
769.825066	0.801160
770.150607	0.806981
770.476101	0.801952
770.801548	0.802872
771.126949	0.815453
771.452303	0.817709
771.777611	0.816802
772.102872	0.816004
772.428087	0.821486
772.753256	0.824310
773.078378	0.826572
773.403453	0.835735
773.728482	0.840089
774.053465	0.834110
774.378401	0.837287
774.703291	0.845943
775.028135	0.844035
775.352932	0.846065
775.677683	0.848672
776.002388	0.850040
776.327046	0.849048
776.651658	0.852692
776.976224	0.854948
777.300743	0.856608
777.625216	0.858868
777.949643	0.858935
778.274024	0.859960
778.598359	0.861932
778.922647	0.859920
779.246889	0.861146
779.571086	0.864725
779.895236	0.866914
780.219339	0.864331
780.543397	0.860520
780.867409	0.858911
781.191374	0.861591
781.515294	0.862740
781.839167	0.862834
782.162995	0.865535
782.486776	0.862246
782.810511	0.863524
783.134201	0.867512
783.457844	0.864780
783.781441	0.867497
784.104993	0.873053
784.428498	0.873732
784.751958	0.869646
785.075372	0.871583
785.398739	0.875561
785.722061	0.872046
786.045337	0.867576
786.368568	0.872010
786.691752	0.875281
787.014891	0.860194
787.337983	0.851386
787.661030	0.844565
787.984031	0.827448
788.306987	0.814663
788.629897	0.817212
788.952760	0.820646
789.275579	0.825633
789.598351	0.840642
789.921078	0.853098
790.243759	0.855610
790.566395	0.860107
790.888984	0.866674
791.211529	0.871705
791.534027	0.874375
791.856480	0.877569
792.178888	0.882733
792.501249	0.885379
792.823566	0.886132
793.145836	0.884970
793.468062	0.887980
793.790241	0.887432
794.112375	0.886739
794.434464	0.881950
794.756507	0.881844
795.078505	0.880576
795.400457	0.875374
795.722364	0.863551
796.044226	0.856228
796.366042	0.855822
796.687812	0.859017
797.009538	0.855450
797.331218	0.857623
797.652852	0.862656
797.974442	0.867942
798.295986	0.867954
798.617484	0.869625
798.938938	0.874297
799.260346	0.878960
799.581709	0.881621
799.903026	0.883055
800.224299	0.884208
800.545526	0.888231
800.866708	0.891233
801.187845	0.895238
801.508936	0.894269
801.829983	0.893430
802.150984	0.896927
802.471940	0.900447
802.792851	0.900155
803.113717	0.900959
803.434538	0.898457
803.755314	0.901176
804.076045	0.903006
804.396731	0.903234
804.717372	0.902995
805.037967	0.904464
805.358518	0.903104
805.679024	0.899214
805.999485	0.899437
806.319901	0.899325
806.640272	0.900795
806.960598	0.898994
807.280879	0.896182
807.601115	0.895091
807.921306	0.899188
808.241453	0.899636
808.561554	0.895833
808.881611	0.897750
809.201623	0.898602
809.521590	0.898420
809.841513	0.900325
810.161390	0.899401
810.481223	0.900307
810.801011	0.904691
811.120755	0.905726
811.440453	0.904469
811.760107	0.903205
812.079716	0.903269
812.399281	0.907843
812.718801	0.909342
813.038276	0.909776
813.357707	0.909745
813.677093	0.906941
813.996434	0.909560
814.315731	0.911844
814.634983	0.912463
814.954191	0.911484
815.273354	0.907944
815.592473	0.905236
815.911547	0.904302
816.230577	0.901301
816.549562	0.899662
816.868502	0.899498
817.187399	0.896606
817.506250	0.890180
817.825058	0.894143
818.143821	0.889512
818.462539	0.884628
818.781213	0.877530
819.099843	0.866216
819.418429	0.851330
819.736970	0.834933
820.055466	0.815115
820.373919	0.790181
820.692327	0.757292
821.010691	0.724393
821.329011	0.649076
821.647286	0.535953
821.965517	0.423588
822.283704	0.381691
822.601847	0.383740
822.919945	0.419278
823.237999	0.451253
823.556010	0.496994
823.873976	0.552521
824.191897	0.601535
824.509775	0.643729
824.827609	0.688091
825.145398	0.710868
825.463144	0.712342
825.780845	0.695380
826.098502	0.677511
826.416116	0.632820
826.733685	0.589220
827.051210	0.581365
827.368692	0.595747
827.686129	0.632100
828.003522	0.683983
828.320872	0.730910
828.638177	0.773744
828.955439	0.805832
829.272656	0.827235
829.589830	0.844049
829.906960	0.859326
830.224046	0.871806
830.541088	0.881580
830.858086	0.885087
831.175041	0.891209
831.491952	0.889901
831.808819	0.888335
832.125642	0.881004
832.442421	0.867076
832.759157	0.845200
833.075849	0.800330
833.392497	0.737641
833.709101	0.696838
834.025662	0.707178
834.342179	0.738447
834.658653	0.775936
834.975083	0.812263
835.291469	0.837251
835.607811	0.859096
835.924110	0.875092
836.240366	0.891702
836.556578	0.905125
836.872746	0.912438
837.188871	0.917925
837.504952	0.922762
837.820990	0.927471
838.136984	0.929632
838.452935	0.933444
838.768842	0.934372
839.084706	0.928707
839.400526	0.902640
839.716303	0.863533
840.032037	0.841857
840.347727	0.845275
840.663373	0.863322
840.978977	0.884122
841.294537	0.906452
841.610054	0.921009
841.925527	0.928370
842.240957	0.935180
842.556344	0.942571
842.871687	0.948781
843.186987	0.952510
843.502244	0.953109
843.817458	0.954653
844.132629	0.958409
844.447756	0.962664
844.762840	0.962008
845.077881	0.962400
845.392879	0.961802
845.707833	0.965294
846.022745	0.966675
846.337613	0.967157
846.652438	0.968635
846.967221	0.966293
847.281960	0.968085
847.596656	0.969787
847.911309	0.966994
848.225919	0.969920
848.540485	0.971106
848.855009	0.970796
849.169490	0.971194
849.483928	0.970385
849.798323	0.971306
850.112675	0.971699
850.426984	0.972394
850.741251	0.972032
851.055474	0.972511
851.369654	0.970050
851.683792	0.971701
851.997887	0.972165
852.311938	0.972662
852.625947	0.970940
852.939914	0.970625
853.253837	0.972085
853.567718	0.972509
853.881555	0.973875
854.195350	0.969967
854.509103	0.971590
854.822812	0.972108
855.136479	0.972735
855.450103	0.971891
855.763685	0.970503
856.077224	0.971586
856.390720	0.972343
856.704173	0.972723
857.017584	0.971437
857.330953	0.968751
857.644278	0.970591
857.957561	0.969879
858.270802	0.971309
858.584000	0.970626
858.897155	0.969569
859.210268	0.969285
859.523339	0.971217
859.836367	0.972668
860.149352	0.973560
860.462295	0.970402
860.775195	0.971624
861.088054	0.971125
861.400869	0.971652
861.713642	0.973166
862.026373	0.972328
862.339062	0.971800
862.651708	0.970207
862.964312	0.969750
863.276873	0.972065
863.589392	0.970359
863.901869	0.968955
864.214303	0.967894
864.526696	0.967350
864.839045	0.966719
865.151353	0.964749
865.463619	0.965462
865.775842	0.965773
866.088023	0.964798
866.400162	0.965033
866.712258	0.964869
867.024313	0.966167
867.336325	0.966223
867.648296	0.966676
867.960224	0.965030
868.272110	0.965186
868.583954	0.966530
868.895755	0.966786
869.207515	0.964750
869.519233	0.961799
869.830909	0.964009
870.142542	0.965437
870.454134	0.965058
870.765684	0.963391
871.077191	0.960827
871.388657	0.962387
871.700081	0.960882
872.011463	0.961971
872.322803	0.960906
872.634101	0.959676
872.945357	0.957266
873.256571	0.955562
873.567744	0.956716
873.878874	0.956885
874.189963	0.955220
874.501010	0.955428
874.812015	0.953111
875.122979	0.954905
875.433900	0.956005
875.744780	0.957917
876.055618	0.953940
876.366415	0.953900
876.677169	0.953219
876.987882	0.954458
877.298554	0.955044
877.609183	0.951032
877.919771	0.949391
878.230317	0.945685
878.540822	0.944053
878.851285	0.940318
879.161707	0.932257
879.472087	0.920810
879.782425	0.904934
880.092722	0.871997
880.402977	0.821851
880.713191	0.764369
881.023363	0.707968
881.333494	0.675405
881.643583	0.647093
881.953631	0.647167
882.263637	0.675542
882.573602	0.714080
882.883526	0.739449
883.193408	0.760746
883.503248	0.781860
883.813048	0.808316
884.122806	0.837093
884.432522	0.859424
884.742197	0.877667
885.051831	0.888582
885.361424	0.897438
885.670975	0.908505
885.980485	0.919880
886.289954	0.925204
886.599382	0.929329
886.908768	0.933222
887.218113	0.938700
887.527417	0.943373
887.836680	0.946890
888.145901	0.947445
888.455082	0.950215
888.764221	0.955619
889.073319	0.956425
889.382376	0.956511
889.691392	0.956826
890.000366	0.955934
890.309300	0.957422
890.618193	0.956717
890.927044	0.954789
891.235855	0.955495
891.544625	0.954779
891.853353	0.956200
892.162041	0.952812
892.470687	0.947561
892.779293	0.942617
893.087858	0.939221
893.396381	0.932194
893.704864	0.918016
894.013306	0.897048
894.321707	0.871125
894.630068	0.858015
894.938387	0.853222
895.246665	0.853834
895.554903	0.865673
895.863100	0.878209
896.171256	0.893937
896.479371	0.913229
896.787446	0.925925
897.095480	0.930840
897.403473	0.933240
897.711425	0.937108
898.019336	0.946106
898.327207	0.947054
898.635038	0.949678
898.942827	0.950197
899.250576	0.952182
899.558284	0.955366
899.865952	0.958136
900.173579	0.958806
900.481165	0.958994
900.788711	0.963809
901.096216	0.964409
901.403681	0.963824
901.711105	0.966171
902.018489	0.966936
902.325832	0.966150
902.633135	0.967269
902.940397	0.960039
903.247619	0.948371
903.554800	0.923645
903.861941	0.886469
904.169041	0.853530
904.476101	0.837985
904.783121	0.838553
905.090100	0.853362
905.397039	0.874436
905.703938	0.894903
906.010796	0.912965
906.317614	0.929008
906.624391	0.940250
906.931129	0.949181
907.237826	0.956540
907.544483	0.963237
907.851099	0.966615
908.157675	0.969869
908.464211	0.973953
908.770707	0.975917
909.077163	0.977486
909.383578	0.978067
909.689954	0.978493
909.996289	0.978622
910.302584	0.980913
910.608839	0.982066
910.915054	0.981060
911.221229	0.981005
911.527363	0.980381
911.833458	0.979454
912.139513	0.979186
912.445527	0.977716
912.751502	0.977139
913.057436	0.975169
913.363331	0.971657
913.669186	0.969394
913.975000	0.965371
914.280775	0.960203
914.586510	0.953963
914.892205	0.941135
915.197859	0.921287
915.503475	0.894705
915.809050	0.875929
916.114585	0.873223
916.420081	0.871214
916.725536	0.866933
917.030952	0.874392
917.336328	0.886305
917.641665	0.900522
917.946961	0.915515
918.252218	0.927115
918.557435	0.934259
918.862612	0.941438
919.167750	0.947131
919.472848	0.951985
919.777906	0.956862
920.082925	0.962341
920.387904	0.967153
920.692843	0.966540
920.997743	0.968191
921.302603	0.971534
921.607423	0.973296
921.912204	0.975553
922.216946	0.974619
922.521647	0.977118
922.826310	0.978219
923.130932	0.981016
923.435516	0.981330
923.740059	0.981802
924.044564	0.982113
924.349028	0.983952
924.653454	0.984521
924.957840	0.987911
925.262186	0.985424
925.566493	0.987034
925.870761	0.987119
926.174989	0.988355
926.479178	0.991371
926.783328	0.991462
927.087438	0.989367
927.391509	0.990154
927.695541	0.992982
927.999533	0.991091
928.303486	0.990377
928.607400	0.993426
928.911275	0.992692
929.215110	0.991058
929.518906	0.992524
929.822663	0.991312
930.126381	0.993558
930.430060	0.991644
930.733699	0.992524
931.037299	0.991678
931.340861	0.991919
931.644383	0.992647
931.947866	0.990501
932.251309	0.992542
932.554714	0.991707
932.858080	0.991456
933.161407	0.992435
933.464694	0.992715
933.767943	0.990118
934.071153	0.993806
934.374323	0.992774
934.677455	0.993755
934.980548	0.993327
935.283602	0.991877
935.586617	0.993910
935.889593	0.992779
936.192530	0.991965
936.495428	0.992851
936.798287	0.993171
937.101108	0.992473
937.403890	0.991804
937.706632	0.990925
938.009336	0.988091
938.312002	0.989347
938.614628	0.985849
938.917216	0.986292
939.219765	0.984765
939.522275	0.985445
939.824747	0.986124
940.127179	0.986125
940.429573	0.986762
940.731929	0.986186
941.034246	0.986962
941.336524	0.987033
941.638763	0.988540
941.940964	0.989109
942.243126	0.987935
942.545250	0.988908
942.847335	0.990822
943.149381	0.990785
943.451389	0.990328
943.753359	0.991885
944.055290	0.991908
944.357182	0.992290
944.659036	0.991121
944.960851	0.992068
945.262628	0.991306
945.564367	0.991563
945.866067	0.992432
946.167729	0.991249
946.469352	0.992547
946.770937	0.989874
947.072484	0.992568
947.373992	0.991593
947.675462	0.992509
947.976893	0.992465
948.278286	0.992727
948.579641	0.992926
948.880958	0.992780
949.182236	0.993288
949.483476	0.993503
949.784678	0.991962
950.085841	0.992916
950.386967	0.992073
950.688054	0.993206
950.989103	0.992877
951.290114	0.991415
951.591087	0.991058
951.892021	0.991714
952.192917	0.991391
952.493776	0.989675
952.794596	0.991171
953.095378	0.990783
953.396122	0.989660
953.696828	0.989017
953.997496	0.991368
954.298126	0.993901
954.598718	0.992058
954.899272	0.992134
955.199788	0.990372
955.500266	0.993360
955.800706	0.994806
956.101108	0.995659
956.401472	0.995843
956.701798	0.995388
957.002087	0.994638
957.302337	0.995776
957.602550	0.996672
957.902724	0.996305
958.202861	0.995840
958.502960	0.997238
958.803022	0.995384
959.103045	0.997189
959.403031	0.996546
959.702979	0.994958
960.002889	0.998124
960.302762	0.996271
960.602596	0.997895
960.902393	0.996519
961.202153	0.998556
961.501875	0.998264
961.801559	0.996682
962.101205	0.997100
962.400814	0.997167
962.700385	0.997611
962.999918	0.996781
963.299414	0.997150
963.598873	0.995719
963.898293	0.997222
964.197677	0.996967
964.497022	0.997493
964.796331	0.999383
965.095601	0.996576
965.394835	0.998279
965.694030	0.997915
965.993189	0.998501
966.292309	0.996784
966.591393	0.998386
966.890439	0.998005
967.189447	0.997608
967.488419	0.997415
967.787353	0.996544
968.086249	0.997583
968.385108	0.998245
968.683930	0.997970
968.982714	0.998533
969.281462	0.998436
969.580172	0.997926
969.878844	0.997872
970.177480	0.997779
970.476078	0.997910
970.774639	0.997565
971.073162	0.998187
971.371649	0.997464
971.670098	0.997600
971.968510	0.997923
972.266885	0.997042
972.565223	0.998072
972.863524	0.996563
973.161788	0.996365
973.460014	0.998145
973.758204	0.997399
974.056356	0.997886
974.354471	0.995800
974.652550	0.997796
974.950591	0.997659
975.248595	0.997513
975.546563	0.997830
975.844493	0.998791
976.142386	0.997264
976.440243	0.998181
976.738062	0.997615
977.035845	0.998869
977.333590	0.997197
977.631299	0.998334
977.928971	0.998236
978.226606	0.998232
978.524204	0.997416
978.821765	0.999724
979.119290	0.997038
979.416777	0.997632
979.714228	0.998426
980.011642	0.997484
980.309020	0.997682
980.606360	0.997211
980.903664	0.998975
981.200931	0.996552
981.498162	0.996664
981.795356	0.995456
982.092513	0.996009
982.389633	0.996102
982.686717	0.992336
982.983764	0.993795
983.280775	0.991372
983.577749	0.992101
983.874686	0.993025
984.171587	0.992134
984.468451	0.995246
984.765279	0.995995
985.062070	0.994830
985.358824	0.995572
985.655543	0.995653
985.952224	0.996859
986.248869	0.997629
986.545478	0.998077
986.842050	0.998749
987.138586	0.996285
987.435086	0.998584
987.731549	0.999153
988.027975	0.997796
988.324366	0.998002
988.620719	0.998173
988.917037	0.997479
989.213318	0.998409
989.509563	0.999811
989.805772	0.998837
990.101944	0.998525
990.398080	0.998052
990.694180	0.999155
990.990244	0.998317
991.286271	0.998662
991.582262	0.998516
991.878217	0.998382
992.174136	0.999509
992.470019	0.999098
992.765865	0.998964
993.061676	0.998980
993.357450	0.998702
993.653188	0.998055
993.948890	0.997960
994.244556	0.998831
994.540186	0.997413
994.835780	0.996891
995.131337	0.997480
995.426859	0.995720
995.722345	0.998619
996.017795	0.997280
996.313208	0.997083
996.608586	0.997247
996.903928	0.997182
997.199234	0.996755
997.494504	0.997323
997.789738	0.996489
998.084936	0.996498
998.380099	0.998759
998.675225	0.997579
998.970316	0.998515
999.265371	0.998660
999.560390	0.997974
999.855373	0.998893
1000.150320	0.998954
1000.445232	0.999588
1000.740108	0.999128
1001.034948	0.998982
1001.329752	0.999698
1001.624521	0.999391
1001.919254	0.998625
1002.213951	0.999809
1002.508613	0.997498
1002.803239	0.998615
1003.097829	0.998315
1003.392384	0.999842
1003.686903	0.999758
1003.981386	0.998258
1004.275834	0.999557
1004.570246	0.999128
1004.864623	0.999667
1005.158964	0.999754
1005.453270	0.998816
1005.747540	0.998372
1006.041775	0.999576
1006.335974	1.000120
1006.630138	0.998865
1006.924266	0.999050
1007.218359	1.000955
1007.512416	0.999661
1007.806438	0.998687
1008.100425	1.000242
1008.394376	0.998628
1008.688292	0.999481
1008.982172	1.001192
1009.276017	0.999469
1009.569827	0.998896
1009.863602	0.999421
1010.157341	0.999918
1010.451045	1.000254
1010.744714	0.999374
1011.038347	0.999855
1011.331945	0.999522
1011.625508	0.998759
1011.919036	0.998742
1012.212528	0.998804
1012.505986	0.998965
1012.799408	0.999262
1013.092795	0.999559
1013.386147	0.999989
1013.679464	0.999837
1013.972745	0.998767
1014.265992	0.997410
1014.559204	0.998978
1014.852380	0.998464
1015.145521	0.999280
1015.438628	0.999407
1015.731699	0.999744
1016.024736	0.998573
1016.317737	0.998065
1016.610703	0.999770
1016.903635	1.000195
1017.196531	0.997967
1017.489393	1.000482
1017.782219	0.998850
1018.075011	0.998832
1018.367768	0.999026
1018.660490	0.999728
1018.953177	0.999728
1019.245829	0.999728
