Dividing Wavelength (nm)	Counts (n)	Blue Motor Position (mm): 0.000000	Red Motor Position (mm): 5.800000	
326.493990	1.000863
326.888308	1.000863
327.282561	1.000863
327.676750	1.000529
328.070874	0.998480
328.464933	0.999104
328.858929	0.998673
329.252859	0.999722
329.646726	0.998977
330.040528	1.000280
330.434265	0.999184
330.827938	1.001224
331.221547	0.999863
331.615091	0.998815
332.008571	1.000302
332.401986	0.999137
332.795338	1.000435
333.188625	0.998145
333.581847	1.000244
333.975006	0.998764
334.368100	0.999815
334.761129	0.999189
335.154095	1.000588
335.546996	0.997518
335.939833	0.992199
336.332606	0.993249
336.725315	0.994486
337.117960	0.995440
337.510540	0.992526
337.903056	0.994164
338.295508	0.991991
338.687896	0.992982
339.080220	0.993713
339.472480	0.993593
339.864676	0.993805
340.256807	0.994119
340.648875	0.993891
341.040879	0.994202
341.432818	0.993442
341.824694	0.993739
342.216506	0.993513
342.608253	0.992929
342.999937	0.993254
343.391557	0.993405
343.783113	0.992590
344.174605	0.994140
344.566033	0.992907
344.957397	0.992007
345.348697	0.992791
345.739934	0.992332
346.131106	0.993265
346.522215	0.991564
346.913260	0.993166
347.304241	0.993244
347.695159	0.993612
348.086012	0.991566
348.476802	0.993468
348.867528	0.992738
349.258191	0.992202
349.648789	0.992716
350.039324	0.993609
350.429796	0.993222
350.820203	0.994088
351.210548	0.993668
351.600828	0.993226
351.991045	0.993270
352.381198	0.991592
352.771288	0.992638
353.161314	0.992075
353.551276	0.993829
353.941175	0.993990
354.331010	0.992470
354.720782	0.992930
355.110490	0.991749
355.500135	0.992754
355.889717	0.992189
356.279235	0.991633
356.668689	0.992764
357.058080	0.991388
357.447408	0.993676
357.836672	0.993207
358.225873	0.993383
358.615010	0.992453
359.004084	0.992218
359.393095	0.992385
359.782043	0.992770
360.170927	0.993644
360.559748	0.992603
360.948505	0.991749
361.337199	0.992697
361.725830	0.991974
362.114398	0.992066
362.502903	0.991319
362.891344	0.993161
363.279722	0.991799
363.668037	0.992109
364.056289	0.991806
364.444478	0.992154
364.832603	0.992280
365.220665	0.990578
365.608665	0.992050
365.996601	0.991755
366.384474	0.992035
366.772284	0.991847
367.160031	0.991073
367.547715	0.990251
367.935336	0.991347
368.322893	0.991798
368.710388	0.990233
369.097820	0.991925
369.485189	0.990532
369.872495	0.989539
370.259738	0.987412
370.646918	0.989626
371.034035	0.988528
371.421090	0.987709
371.808081	0.985199
372.195010	0.985086
372.581875	0.984735
372.968678	0.981138
373.355418	0.979549
373.742096	0.975666
374.128710	0.974800
374.515262	0.969365
374.901751	0.966693
375.288177	0.963682
375.674540	0.959095
376.060841	0.953724
376.447079	0.949365
376.833254	0.943945
377.219367	0.939765
377.605417	0.930798
377.991404	0.926364
378.377329	0.919641
378.763191	0.914233
379.148991	0.906349
379.534727	0.898890
379.920402	0.890449
380.306013	0.885383
380.691563	0.873455
381.077049	0.865563
381.462474	0.860577
381.847835	0.848787
382.233134	0.841132
382.618371	0.838371
383.003545	0.822219
383.388657	0.816768
383.773706	0.809335
384.158693	0.802105
384.543618	0.793515
384.928480	0.784762
385.313280	0.772509
385.698017	0.770013
386.082692	0.757122
386.467305	0.753357
386.851856	0.745823
387.236344	0.737929
387.620770	0.729751
388.005133	0.722487
388.389435	0.717195
388.773674	0.712335
389.157851	0.702895
389.541965	0.698977
389.926018	0.703574
390.310008	0.690094
390.693936	0.684756
391.077802	0.676829
391.461606	0.678490
391.845348	0.666648
392.229027	0.666945
392.612645	0.662765
392.996200	0.650570
393.379694	0.642221
393.763125	0.632704
394.146494	0.637455
394.529801	0.627308
394.913047	0.619858
395.296230	0.624877
395.679351	0.616014
396.062410	0.611913
396.445408	0.615703
396.828343	0.610335
397.211217	0.605390
397.594028	0.618153
397.976778	0.607931
398.359466	0.604946
398.742092	0.599783
399.124656	0.612178
399.507158	0.600718
399.889598	0.596762
400.271977	0.587774
400.654294	0.593505
401.036549	0.591774
401.418742	0.596118
401.800874	0.580757
402.182944	0.578777
402.564952	0.569705
402.946898	0.572809
403.328783	0.572544
403.710606	0.583686
404.092367	0.558629
404.474067	0.563684
404.855705	0.562406
405.237282	0.571965
405.618797	0.557213
406.000250	0.553884
406.381642	0.544174
406.762972	0.549198
407.144240	0.548853
407.525447	0.548478
407.906593	0.540812
408.287677	0.535392
408.668700	0.543954
409.049661	0.538042
409.430560	0.533884
409.811399	0.541847
410.192176	0.523479
410.572891	0.530603
410.953545	0.519275
411.334138	0.531666
411.714669	0.525301
412.095139	0.536040
412.475547	0.521256
412.855894	0.522722
413.236180	0.522375
413.616405	0.527274
413.996568	0.517806
414.376670	0.524024
414.756711	0.528844
415.136691	0.526154
415.516609	0.517523
415.896466	0.513390
416.276262	0.508801
416.655997	0.511595
417.035670	0.492826
417.415283	0.484835
417.794834	0.489041
418.174324	0.494291
418.553753	0.503759
418.933121	0.486134
419.312428	0.479433
419.691674	0.485147
420.070859	0.473750
420.449983	0.482256
420.829045	0.471532
421.208047	0.480526
421.586988	0.473682
421.965867	0.472394
422.344686	0.461512
422.723444	0.473243
423.102141	0.490381
423.480777	0.463648
423.859352	0.483940
424.237866	0.461082
424.616319	0.462031
424.994712	0.453243
425.373044	0.463465
425.751314	0.451477
426.129524	0.467836
426.507673	0.451911
426.885762	0.445349
427.263789	0.451330
427.641756	0.459993
428.019662	0.450589
428.397508	0.449815
428.775292	0.454404
429.153016	0.446096
429.530679	0.452577
429.908282	0.445110
430.285824	0.455969
430.663305	0.434064
431.040726	0.454555
431.418086	0.455533
431.795385	0.447090
432.172624	0.444945
432.549802	0.446713
432.926920	0.445190
433.303977	0.444651
433.680974	0.441762
434.057910	0.440499
434.434786	0.439934
434.811601	0.442359
435.188355	0.424389
435.565050	0.433858
435.941683	0.435071
436.318257	0.419761
436.694770	0.419773
437.071222	0.418400
437.447614	0.422788
437.823946	0.429465
438.200218	0.418537
438.576429	0.428322
438.952580	0.421566
439.328670	0.418385
439.704700	0.424682
440.080670	0.425772
440.456580	0.406756
440.832429	0.414610
441.208218	0.425751
441.583947	0.415318
441.959616	0.414923
442.335224	0.419780
442.710773	0.411034
443.086261	0.408390
443.461689	0.422213
443.837057	0.412451
444.212365	0.401923
444.587612	0.409626
444.962800	0.399589
445.337927	0.400741
445.712995	0.426947
446.088002	0.389423
446.462949	0.399850
446.837837	0.404129
447.212664	0.393544
447.587431	0.384466
447.962139	0.355220
448.336786	0.314843
448.711374	0.324844
449.085901	0.368577
449.460369	0.373461
449.834776	0.376432
450.209124	0.356246
450.583412	0.348599
450.957640	0.341745
451.331808	0.352601
451.705917	0.376424
452.079965	0.380726
452.453954	0.369402
452.827883	0.375864
453.201752	0.370762
453.575562	0.381947
453.949311	0.371048
454.323001	0.376524
454.696632	0.372458
455.070202	0.365662
455.443713	0.356929
455.817164	0.352220
456.190556	0.347653
456.563888	0.344327
456.937160	0.342310
457.310373	0.359625
457.683526	0.357911
458.056619	0.363878
458.429653	0.364713
458.802628	0.367707
459.175542	0.362174
459.548398	0.344713
459.921194	0.337569
460.293930	0.337097
460.666607	0.314700
461.039224	0.303273
461.411782	0.299164
461.784280	0.298260
462.156719	0.302216
462.529099	0.306544
462.901419	0.322685
463.273680	0.327120
463.645882	0.326722
464.018024	0.332213
464.390106	0.325299
464.762130	0.310079
465.134094	0.292931
465.505999	0.261964
465.877845	0.232546
466.249631	0.219762
466.621358	0.227192
466.993026	0.241121
467.364634	0.247056
467.736184	0.255896
468.107674	0.264423
468.479105	0.263653
468.850477	0.270634
469.221790	0.276947
469.593043	0.287285
469.964238	0.292400
470.335373	0.291427
470.706449	0.290112
471.077467	0.290113
471.448425	0.252661
471.819324	0.228215
472.190164	0.227479
472.560945	0.256508
472.931667	0.278370
473.302330	0.282589
473.672934	0.294486
474.043479	0.282833
474.413965	0.284734
474.784393	0.287716
475.154761	0.283278
475.525070	0.279888
475.895321	0.285998
476.265513	0.279771
476.635645	0.275667
477.005719	0.275506
477.375734	0.272014
477.745691	0.265241
478.115588	0.261833
478.485427	0.255516
478.855207	0.242208
479.224928	0.224654
479.594591	0.212825
479.964194	0.216322
480.333739	0.217330
480.703226	0.218828
481.072653	0.217514
481.442022	0.212975
481.811333	0.209477
482.180584	0.213083
482.549777	0.218350
482.918912	0.221625
483.287988	0.221215
483.657005	0.221073
484.025964	0.227759
484.394864	0.225030
484.763706	0.225369
485.132489	0.230554
485.501213	0.231334
485.869879	0.229707
486.238487	0.232822
486.607036	0.230696
486.975527	0.235171
487.343959	0.231062
487.712333	0.230363
488.080648	0.231592
488.448905	0.230682
488.817104	0.232039
489.185244	0.226549
489.553326	0.223523
489.921350	0.213360
490.289315	0.195989
490.657222	0.190851
491.025070	0.192289
491.392861	0.194103
491.760593	0.199890
492.128267	0.205604
492.495883	0.210936
492.863440	0.217347
493.230939	0.223591
493.598380	0.225122
493.965763	0.227039
494.333088	0.229678
494.700354	0.230823
495.067563	0.229913
495.434713	0.233023
495.801805	0.231140
496.168839	0.232475
496.535815	0.233814
496.902733	0.233966
497.269593	0.235336
497.636395	0.233216
498.003139	0.233509
498.369825	0.236288
498.736453	0.233128
499.103023	0.234460
499.469535	0.233770
499.835989	0.234122
500.202385	0.235113
500.568723	0.238182
500.935003	0.233243
501.301226	0.237640
501.667390	0.232043
502.033497	0.230292
502.399546	0.233201
502.765537	0.234728
503.131470	0.233322
503.497345	0.229741
503.863163	0.238349
504.228923	0.231278
504.594625	0.229964
504.960269	0.235292
505.325856	0.230628
505.691385	0.235092
506.056856	0.231876
506.422270	0.231118
506.787625	0.233635
507.152924	0.231024
507.518164	0.231680
507.883347	0.233278
508.248472	0.234716
508.613540	0.229957
508.978550	0.232465
509.343503	0.232831
509.708398	0.230729
510.073236	0.228298
510.438016	0.228193
510.802738	0.229194
511.167403	0.228106
511.532010	0.230237
511.896561	0.225309
512.261053	0.224370
512.625488	0.226378
512.989866	0.226739
513.354186	0.227032
513.718449	0.228724
514.082655	0.224919
514.446803	0.227458
514.810894	0.225218
515.174927	0.227723
515.538904	0.227150
515.902822	0.224017
516.266684	0.226329
516.630488	0.227563
516.994235	0.226184
517.357925	0.225119
517.721558	0.223440
518.085133	0.222960
518.448651	0.223041
518.812112	0.225263
519.175516	0.224933
519.538863	0.222730
519.902152	0.224117
520.265385	0.221172
520.628560	0.222929
520.991678	0.223454
521.354739	0.222439
521.717743	0.223523
522.080690	0.224084
522.443580	0.221011
522.806413	0.222077
523.169189	0.221504
523.531908	0.220406
523.894569	0.223766
524.257174	0.223730
524.619722	0.221527
524.982213	0.222668
525.344647	0.221387
525.707025	0.222482
526.069345	0.220468
526.431608	0.222304
526.793815	0.220273
527.155964	0.224263
527.518057	0.223227
527.880093	0.224134
528.242072	0.222795
528.603995	0.224903
528.965860	0.226528
529.327669	0.225476
529.689421	0.226054
530.051117	0.227144
530.412755	0.224278
530.774337	0.227132
531.135862	0.227325
531.497331	0.226724
531.858743	0.229520
532.220098	0.226450
532.581396	0.228973
532.942638	0.229395
533.303824	0.230410
533.664953	0.230179
534.026025	0.231455
534.387040	0.230074
534.747999	0.229668
535.108902	0.228449
535.469748	0.233551
535.830537	0.231421
536.191270	0.231827
536.551947	0.231193
536.912567	0.231628
537.273131	0.233167
537.633638	0.233383
537.994089	0.233489
538.354483	0.234894
538.714821	0.231861
539.075103	0.231344
539.435328	0.232154
539.795497	0.235989
540.155609	0.232691
540.515665	0.230637
540.875665	0.236343
541.235609	0.234769
541.595496	0.235063
541.955328	0.231334
542.315102	0.234124
542.674821	0.235299
543.034483	0.235213
543.394090	0.235050
543.753640	0.236761
544.113134	0.231926
544.472571	0.235203
544.831953	0.231969
545.191278	0.236313
545.550548	0.235431
545.909761	0.232436
546.268918	0.232942
546.628019	0.231646
546.987064	0.234179
547.346053	0.236048
547.704986	0.233790
548.063863	0.233914
548.422684	0.234315
548.781449	0.235996
549.140158	0.233718
549.498811	0.236712
549.857408	0.239617
550.215949	0.234627
550.574434	0.237215
550.932864	0.235467
551.291237	0.234098
551.649555	0.235732
552.007817	0.235203
552.366022	0.236145
552.724173	0.236353
553.082267	0.236596
553.440305	0.233800
553.798288	0.237944
554.156215	0.234675
554.514086	0.235235
554.871902	0.238320
555.229661	0.237739
555.587365	0.238331
555.945014	0.240709
556.302606	0.237552
556.660143	0.240228
557.017625	0.236525
557.375050	0.238892
557.732421	0.235868
558.089735	0.238206
558.446994	0.238150
558.804197	0.237182
559.161345	0.237177
559.518437	0.240632
559.875474	0.238358
560.232455	0.237759
560.589381	0.238855
560.946251	0.238925
561.303065	0.236477
561.659825	0.238019
562.016528	0.239664
562.373177	0.242041
562.729770	0.239453
563.086307	0.241853
563.442789	0.239533
563.799216	0.242283
564.155587	0.241044
564.511904	0.242341
564.868164	0.242380
565.224370	0.241966
565.580520	0.243705
565.936615	0.243705
566.292654	0.246857
566.648638	0.243960
567.004567	0.244875
567.360441	0.245378
567.716260	0.247179
568.072023	0.244901
568.427732	0.245986
568.783385	0.248334
569.138982	0.246437
569.494525	0.246027
569.850013	0.248864
570.205445	0.247147
570.560823	0.249804
570.916145	0.251745
571.271412	0.249824
571.626625	0.251267
571.981782	0.251943
572.336884	0.252747
572.691931	0.252456
573.046923	0.253898
573.401860	0.254980
573.756743	0.256522
574.111570	0.255267
574.466342	0.256000
574.821059	0.255030
575.175722	0.257860
575.530330	0.257710
575.884882	0.258112
576.239380	0.260216
576.593823	0.260768
576.948211	0.260016
577.302544	0.263476
577.656823	0.262822
578.011047	0.262851
578.365216	0.263534
578.719330	0.265523
579.073389	0.265664
579.427394	0.266726
579.781344	0.267720
580.135239	0.268812
580.489080	0.268549
580.842866	0.271714
581.196597	0.271733
581.550273	0.270253
581.903895	0.271103
582.257463	0.269257
582.610975	0.272629
582.964434	0.272221
583.317837	0.274668
583.671186	0.274919
584.024481	0.274980
584.377721	0.277342
584.730906	0.278017
585.084037	0.277141
585.437113	0.278921
585.790135	0.278420
586.143103	0.281342
586.496016	0.282780
586.848874	0.280135
587.201679	0.280791
587.554428	0.284414
587.907124	0.282616
588.259765	0.283352
588.612352	0.283906
588.964884	0.288030
589.317362	0.287433
589.669786	0.287789
590.022155	0.285798
590.374470	0.285242
590.726731	0.287446
591.078937	0.292021
591.431090	0.288230
591.783188	0.292886
592.135232	0.293179
592.487222	0.293183
592.839157	0.291166
593.191038	0.293568
593.542866	0.295500
593.894639	0.298900
594.246358	0.297129
594.598022	0.296624
594.949633	0.300223
595.301190	0.300815
595.652692	0.299636
596.004141	0.296269
596.355535	0.304324
596.706876	0.304996
597.058162	0.307293
597.409395	0.304701
597.760573	0.302104
598.111698	0.305269
598.462768	0.306011
598.813785	0.307041
599.164748	0.308157
599.515657	0.308721
599.866511	0.312410
600.217312	0.307014
600.568060	0.313027
600.918753	0.308755
601.269392	0.309952
601.619978	0.313204
601.970510	0.310809
602.320988	0.311317
602.671412	0.308690
603.021783	0.311166
603.372100	0.312336
603.722363	0.312392
604.072572	0.313498
604.422728	0.312812
604.772830	0.314979
605.122878	0.314370
605.472872	0.314625
605.822813	0.313709
606.172701	0.316498
606.522534	0.313340
606.872314	0.313723
607.222041	0.314348
607.571714	0.312342
607.921333	0.314054
608.270899	0.313949
608.620411	0.310350
608.969870	0.314515
609.319276	0.314428
609.668627	0.314580
610.017926	0.313043
610.367171	0.311305
610.716362	0.312255
611.065500	0.312498
611.414585	0.311245
611.763616	0.311762
612.112594	0.312330
612.461518	0.311757
612.810389	0.309066
613.159207	0.311796
613.507971	0.313202
613.856682	0.309043
614.205340	0.310293
614.553945	0.307243
614.902496	0.311277
615.250994	0.309346
615.599439	0.310195
615.947830	0.309608
616.296169	0.310659
616.644454	0.310574
616.992686	0.310035
617.340864	0.307600
617.688990	0.312022
618.037063	0.308076
618.385082	0.310335
618.733048	0.306811
619.080961	0.309415
619.428821	0.308718
619.776628	0.307935
620.124382	0.310433
620.472083	0.310453
620.819731	0.309855
621.167326	0.313957
621.514868	0.313459
621.862357	0.317806
622.209793	0.317557
622.557176	0.319510
622.904506	0.320829
623.251783	0.323046
623.599007	0.325188
623.946179	0.324770
624.293297	0.326555
624.640363	0.330515
624.987376	0.331130
625.334336	0.333907
625.681243	0.336013
626.028097	0.336672
626.374899	0.337770
626.721647	0.338015
627.068343	0.341136
627.414987	0.342241
627.761577	0.344315
628.108115	0.342631
628.454600	0.347672
628.801032	0.345078
629.147412	0.347505
629.493739	0.347700
629.840014	0.350921
630.186236	0.347938
630.532405	0.353602
630.878521	0.351137
631.224585	0.353088
631.570597	0.356986
631.916556	0.355301
632.262462	0.355561
632.608316	0.357847
632.954117	0.358320
633.299866	0.359158
633.645562	0.359366
633.991206	0.364205
634.336797	0.366913
634.682336	0.369241
635.027823	0.371038
635.373257	0.371340
635.718639	0.375321
636.063968	0.374180
636.409245	0.380116
636.754470	0.380144
637.099642	0.382862
637.444762	0.386251
637.789829	0.385203
638.134845	0.388766
638.479808	0.389851
638.824719	0.389997
639.169577	0.393618
639.514383	0.392641
639.859137	0.396825
640.203839	0.396298
640.548489	0.396489
640.893086	0.398110
641.237632	0.400060
641.582125	0.398488
641.926566	0.400357
642.270955	0.399805
642.615292	0.401046
642.959576	0.399784
643.303809	0.400613
643.647990	0.399523
643.992118	0.400693
644.336195	0.404191
644.680219	0.402465
645.024192	0.402677
645.368112	0.396524
645.711981	0.395204
646.055797	0.390961
646.399562	0.393014
646.743274	0.385413
647.086935	0.382587
647.430544	0.382831
647.774101	0.381717
648.117606	0.381439
648.461059	0.381658
648.804460	0.384367
649.147810	0.389420
649.491108	0.391424
649.834354	0.393050
650.177548	0.398236
650.520690	0.403352
650.863781	0.404772
651.206820	0.403876
651.549807	0.408576
651.892742	0.412669
652.235626	0.412505
652.578458	0.413406
652.921238	0.419450
653.263967	0.417030
653.606644	0.421077
653.949269	0.420770
654.291843	0.424299
654.634365	0.421167
654.976836	0.424053
655.319255	0.424715
655.661622	0.426232
656.003938	0.426734
656.346203	0.429376
656.688416	0.427125
657.030577	0.430479
657.372687	0.432351
657.714746	0.433420
658.056753	0.430220
658.398708	0.434422
658.740612	0.435262
659.082465	0.431804
659.424266	0.431911
659.766016	0.431470
660.107715	0.434122
660.449362	0.432895
660.790958	0.434017
661.132503	0.433999
661.473996	0.431856
661.815438	0.432644
662.156829	0.433414
662.498168	0.433980
662.839456	0.434894
663.180693	0.432607
663.521879	0.433093
663.863013	0.433916
664.204097	0.432440
664.545129	0.429128
664.886110	0.429171
665.227040	0.426695
665.567918	0.429368
665.908746	0.426979
666.249522	0.426587
666.590248	0.428046
666.930922	0.426284
667.271545	0.424854
667.612118	0.424922
667.952639	0.426795
668.293109	0.425261
668.633528	0.428273
668.973896	0.428133
669.314213	0.428744
669.654480	0.430425
669.994695	0.430455
670.334859	0.431532
670.674973	0.431491
671.015035	0.431895
671.355047	0.431689
671.695008	0.432943
672.034918	0.434447
672.374777	0.433784
672.714585	0.435116
673.054342	0.435047
673.394049	0.435682
673.733705	0.432680
674.073310	0.433412
674.412864	0.436969
674.752368	0.437846
675.091820	0.437892
675.431223	0.441804
675.770574	0.442027
676.109875	0.444681
676.449125	0.444996
676.788324	0.447580
677.127473	0.453135
677.466571	0.452325
677.805619	0.453750
678.144616	0.454711
678.483562	0.456634
678.822458	0.459243
679.161303	0.460793
679.500098	0.461167
679.838842	0.462617
680.177535	0.461719
680.516179	0.461297
680.854771	0.459541
681.193314	0.453636
681.531805	0.444173
681.870247	0.433232
682.208638	0.425482
682.546978	0.424209
682.885268	0.426178
683.223508	0.432228
683.561697	0.435909
683.899836	0.438915
684.237925	0.441800
684.575963	0.444139
684.913951	0.448246
685.251889	0.443977
685.589776	0.445321
685.927614	0.448061
686.265401	0.442419
686.603137	0.443722
686.940824	0.437531
687.278460	0.436100
687.616046	0.435069
687.953582	0.429757
688.291068	0.431423
688.628504	0.426920
688.965889	0.429603
689.303224	0.433627
689.640510	0.437077
689.977745	0.442967
690.314930	0.451253
690.652065	0.455784
690.989150	0.463029
691.326185	0.469747
691.663170	0.474143
692.000105	0.481197
692.336990	0.488308
692.673825	0.490464
693.010610	0.497876
693.347345	0.503515
693.684030	0.504583
694.020665	0.509796
694.357251	0.518174
694.693786	0.518102
695.030272	0.522422
695.366707	0.525898
695.703093	0.529259
696.039429	0.527266
696.375716	0.528782
696.711952	0.531378
697.048139	0.532828
697.384276	0.535470
697.720363	0.533625
698.056400	0.532275
698.392388	0.538505
698.728326	0.541258
699.064214	0.544352
699.400053	0.544557
699.735842	0.549180
700.071581	0.551542
700.407270	0.554205
700.742910	0.556978
701.078501	0.563300
701.414042	0.564259
701.749533	0.566865
702.084974	0.575591
702.420366	0.567051
702.755709	0.575367
703.091002	0.582917
703.426246	0.576684
703.761440	0.583016
704.096584	0.587340
704.431679	0.584693
704.766725	0.586529
705.101721	0.588487
705.436668	0.584307
705.771565	0.590520
706.106413	0.587750
706.441212	0.583139
706.775961	0.581950
707.110661	0.584050
707.445311	0.581171
707.779913	0.578131
708.114465	0.576970
708.448967	0.573551
708.783421	0.565198
709.117825	0.560275
709.452180	0.560311
709.786485	0.554180
710.120742	0.544241
710.454949	0.545574
710.789107	0.537725
711.123216	0.528966
711.457275	0.530612
711.791286	0.521051
712.125247	0.520197
712.459159	0.530845
712.793023	0.523498
713.126837	0.527796
713.460602	0.527987
713.794318	0.537651
714.127985	0.536397
714.461602	0.546098
714.795171	0.549950
715.128691	0.557770
715.462162	0.565266
715.795584	0.570625
716.128957	0.573798
716.462281	0.579716
716.795556	0.584005
717.128782	0.588824
717.461960	0.598198
717.795088	0.596532
718.128167	0.602620
718.461198	0.611569
718.794180	0.612173
719.127113	0.614783
719.459997	0.618389
719.792833	0.625198
720.125619	0.626259
720.458357	0.631670
720.791046	0.631302
721.123686	0.635838
721.456278	0.641213
721.788821	0.639654
722.121315	0.643119
722.453761	0.647374
722.786158	0.645626
723.118506	0.641970
723.450805	0.650008
723.783056	0.645573
724.115259	0.643545
724.447412	0.643229
724.779518	0.644744
725.111574	0.642870
725.443582	0.638534
725.775542	0.641278
726.107453	0.633171
726.439315	0.632909
726.771129	0.631232
727.102895	0.625042
727.434612	0.617445
727.766281	0.615052
728.097901	0.614885
728.429473	0.614561
728.760996	0.612676
729.092471	0.612824
729.423897	0.616041
729.755276	0.615697
730.086606	0.615092
730.417887	0.610154
730.749120	0.601073
731.080305	0.591912
731.411442	0.587492
731.742530	0.593274
732.073570	0.591479
732.404562	0.583746
732.735506	0.586041
733.066401	0.590142
733.397249	0.599584
733.728048	0.611369
734.058798	0.623679
734.389501	0.634380
734.720156	0.644246
735.050762	0.651202
735.381320	0.652641
735.711831	0.662659
736.042293	0.667414
736.372707	0.663778
736.703073	0.667053
737.033391	0.669931
737.363661	0.666748
737.693883	0.661925
738.024056	0.660350
738.354182	0.661848
738.684260	0.650923
739.014290	0.646773
739.344272	0.647749
739.674207	0.641322
740.004093	0.639949
740.333931	0.640462
740.663722	0.641216
740.993464	0.641232
741.323159	0.644724
741.652806	0.650220
741.982405	0.654847
742.311956	0.659579
742.641460	0.661978
742.970915	0.665495
743.300323	0.672385
743.629683	0.679732
743.958996	0.680270
744.288260	0.686241
744.617477	0.691958
744.946647	0.693328
745.275768	0.698685
745.604842	0.698181
745.933869	0.708904
746.262847	0.709435
746.591778	0.702496
746.920662	0.708326
747.249498	0.715292
747.578286	0.705840
747.907027	0.703008
748.235720	0.703346
748.564365	0.697608
748.892963	0.698109
749.221514	0.701278
749.550017	0.706342
749.878473	0.704872
750.206881	0.711805
750.535242	0.714077
750.863555	0.713290
751.191821	0.713901
751.520039	0.716998
751.848210	0.723458
752.176334	0.714636
752.504411	0.714295
752.832440	0.721701
753.160421	0.725770
753.488356	0.723343
753.816243	0.722434
754.144082	0.729919
754.471875	0.734043
754.799620	0.728801
755.127318	0.729854
755.454969	0.729480
755.782572	0.729502
756.110129	0.735046
756.437638	0.736765
756.765100	0.732915
757.092515	0.730932
757.419882	0.729844
757.747203	0.736327
758.074477	0.735198
758.401703	0.733023
758.728882	0.727722
759.056014	0.726623
759.383099	0.725650
759.710138	0.726333
760.037129	0.722891
760.364073	0.716418
760.690970	0.719685
761.017820	0.724793
761.344623	0.720264
761.671379	0.712149
761.998088	0.699509
762.324751	0.676791
762.651366	0.634387
762.977935	0.567779
763.304456	0.515100
763.630931	0.505972
763.957359	0.544561
764.283740	0.589709
764.610074	0.617641
764.936362	0.649424
765.262602	0.674791
765.588796	0.696957
765.914943	0.715170
766.241044	0.732134
766.567097	0.739184
766.893104	0.748515
767.219064	0.755140
767.544978	0.762072
767.870845	0.775709
768.196665	0.779559
768.522438	0.777459
768.848165	0.778537
769.173846	0.787946
769.499479	0.792004
769.825066	0.795246
770.150607	0.800746
770.476101	0.795193
770.801548	0.797690
771.126949	0.808213
771.452303	0.812066
771.777611	0.811556
772.102872	0.810678
772.428087	0.814690
772.753256	0.818622
773.078378	0.821852
773.403453	0.830538
773.728482	0.833965
774.053465	0.827943
774.378401	0.831728
774.703291	0.840428
775.028135	0.838891
775.352932	0.841678
775.677683	0.843742
776.002388	0.845598
776.327046	0.844198
776.651658	0.847555
776.976224	0.850418
777.300743	0.851589
777.625216	0.853563
777.949643	0.853884
778.274024	0.854561
778.598359	0.855193
778.922647	0.854846
779.246889	0.855675
779.571086	0.858704
779.895236	0.862554
780.219339	0.859862
780.543397	0.856919
780.867409	0.855961
781.191374	0.857951
781.515294	0.858372
781.839167	0.857122
782.162995	0.861174
782.486776	0.858172
782.810511	0.858129
783.134201	0.861819
783.457844	0.859920
783.781441	0.862740
784.104993	0.867215
784.428498	0.868554
784.751958	0.864451
785.075372	0.866303
785.398739	0.870774
785.722061	0.867281
786.045337	0.862937
786.368568	0.867750
786.691752	0.870047
787.014891	0.854780
787.337983	0.846509
787.661030	0.838712
787.984031	0.821558
788.306987	0.807844
788.629897	0.811131
788.952760	0.815290
789.275579	0.819529
789.598351	0.834629
789.921078	0.847306
790.243759	0.849321
790.566395	0.854189
790.888984	0.861889
791.211529	0.866506
791.534027	0.870845
791.856480	0.872896
792.178888	0.877182
792.501249	0.879911
792.823566	0.881686
793.145836	0.881477
793.468062	0.883429
793.790241	0.882800
794.112375	0.880977
794.434464	0.876116
794.756507	0.876717
795.078505	0.875855
795.400457	0.870431
795.722364	0.857762
796.044226	0.851725
796.366042	0.849761
796.687812	0.854421
797.009538	0.850394
797.331218	0.853123
797.652852	0.858069
797.974442	0.862034
798.295986	0.861320
798.617484	0.864644
798.938938	0.869725
799.260346	0.874356
799.581709	0.876237
799.903026	0.879573
800.224299	0.878617
800.545526	0.882954
800.866708	0.886631
801.187845	0.891700
801.508936	0.889756
801.829983	0.888864
802.150984	0.892035
802.471940	0.897260
802.792851	0.896663
803.113717	0.896693
803.434538	0.894515
803.755314	0.898158
804.076045	0.898283
804.396731	0.899637
804.717372	0.898153
805.037967	0.900390
805.358518	0.897868
805.679024	0.895107
805.999485	0.894982
806.319901	0.894598
806.640272	0.897239
806.960598	0.894700
807.280879	0.891954
807.601115	0.890339
807.921306	0.893952
808.241453	0.894691
808.561554	0.892238
808.881611	0.892903
809.201623	0.894773
809.521590	0.894786
809.841513	0.895790
810.161390	0.895633
810.481223	0.896814
810.801011	0.900008
811.120755	0.900257
811.440453	0.900505
811.760107	0.899356
812.079716	0.899182
812.399281	0.902477
812.718801	0.905464
813.038276	0.905440
813.357707	0.904995
813.677093	0.902078
813.996434	0.905519
814.315731	0.906943
814.634983	0.907488
814.954191	0.906008
815.273354	0.904318
815.592473	0.900278
815.911547	0.899937
816.230577	0.896777
816.549562	0.894948
816.868502	0.895057
817.187399	0.890819
817.506250	0.885812
817.825058	0.888299
818.143821	0.884703
818.462539	0.879347
818.781213	0.871572
819.099843	0.859423
819.418429	0.844152
819.736970	0.826990
820.055466	0.806748
820.373919	0.780433
820.692327	0.748099
821.010691	0.712073
821.329011	0.633649
821.647286	0.517501
821.965517	0.402325
822.283704	0.359085
822.601847	0.359814
822.919945	0.395750
823.237999	0.430392
823.556010	0.477551
823.873976	0.533946
824.191897	0.584981
824.509775	0.628704
824.827609	0.673509
825.145398	0.696914
825.463144	0.700179
825.780845	0.683660
826.098502	0.664317
826.416116	0.617696
826.733685	0.573236
827.051210	0.564244
827.368692	0.579164
827.686129	0.617677
828.003522	0.670971
828.320872	0.718461
828.638177	0.763485
828.955439	0.795202
829.272656	0.818779
829.589830	0.835697
829.906960	0.852191
830.224046	0.864064
830.541088	0.874638
830.858086	0.878863
831.175041	0.885241
831.491952	0.883493
831.808819	0.881169
832.125642	0.874391
832.442421	0.858876
832.759157	0.837683
833.075849	0.790336
833.392497	0.725996
833.709101	0.684656
834.025662	0.694789
834.342179	0.726873
834.658653	0.766036
834.975083	0.802804
835.291469	0.828105
835.607811	0.852253
835.924110	0.867350
836.240366	0.885113
836.556578	0.898594
836.872746	0.906916
837.188871	0.913947
837.504952	0.918160
837.820990	0.921874
838.136984	0.925488
838.452935	0.928189
838.768842	0.930277
839.084706	0.924040
839.400526	0.898886
839.716303	0.856595
840.032037	0.833401
840.347727	0.837726
840.663373	0.855898
840.978977	0.877553
841.294537	0.900207
841.610054	0.917063
841.925527	0.925122
842.240957	0.930613
842.556344	0.939118
842.871687	0.945409
843.186987	0.948119
843.502244	0.949148
843.817458	0.951195
844.132629	0.955300
844.447756	0.959112
844.762840	0.960329
845.077881	0.957431
845.392879	0.958016
845.707833	0.961807
846.022745	0.963304
846.337613	0.964391
846.652438	0.966456
846.967221	0.963765
847.281960	0.963956
847.596656	0.965964
847.911309	0.964115
848.225919	0.966462
848.540485	0.967630
848.855009	0.969262
849.169490	0.967255
849.483928	0.968782
849.798323	0.968229
850.112675	0.970074
850.426984	0.968687
850.741251	0.968871
851.055474	0.969831
851.369654	0.967922
851.683792	0.967849
851.997887	0.968247
852.311938	0.969399
852.625947	0.968734
852.939914	0.967954
853.253837	0.968591
853.567718	0.970402
853.881555	0.969761
854.195350	0.967194
854.509103	0.968008
854.822812	0.969787
855.136479	0.968563
855.450103	0.968371
855.763685	0.967705
856.077224	0.968555
856.390720	0.969862
856.704173	0.970625
857.017584	0.968263
857.330953	0.966219
857.644278	0.967826
857.957561	0.966906
858.270802	0.967198
858.584000	0.966338
858.897155	0.965441
859.210268	0.966342
859.523339	0.968513
859.836367	0.968412
860.149352	0.970821
860.462295	0.967772
860.775195	0.969122
861.088054	0.969131
861.400869	0.968125
861.713642	0.970095
862.026373	0.968058
862.339062	0.969333
862.651708	0.967160
862.964312	0.966821
863.276873	0.968026
863.589392	0.966519
863.901869	0.964894
864.214303	0.964446
864.526696	0.963344
864.839045	0.962166
865.151353	0.960752
865.463619	0.961438
865.775842	0.961831
866.088023	0.962081
866.400162	0.961242
866.712258	0.962229
867.024313	0.960872
867.336325	0.962459
867.648296	0.961732
867.960224	0.962019
868.272110	0.961704
868.583954	0.963050
868.895755	0.961187
869.207515	0.960615
869.519233	0.958168
869.830909	0.958526
870.142542	0.961629
870.454134	0.960420
870.765684	0.959050
871.077191	0.957130
871.388657	0.957946
871.700081	0.957262
872.011463	0.957706
872.322803	0.956780
872.634101	0.955567
872.945357	0.952538
873.256571	0.951758
873.567744	0.951762
873.878874	0.952493
874.189963	0.950538
874.501010	0.949620
874.812015	0.948695
875.122979	0.948215
875.433900	0.951935
875.744780	0.952371
876.055618	0.949738
876.366415	0.948372
876.677169	0.948798
876.987882	0.949482
877.298554	0.949981
877.609183	0.945033
877.919771	0.944118
878.230317	0.941063
878.540822	0.938652
878.851285	0.932193
879.161707	0.924015
879.472087	0.912990
879.782425	0.895698
880.092722	0.861071
880.402977	0.806856
880.713191	0.745327
881.023363	0.684349
881.333494	0.650185
881.643583	0.621676
881.953631	0.622264
882.263637	0.650732
882.573602	0.690235
882.883526	0.716638
883.193408	0.740909
883.503248	0.764563
883.813048	0.793075
884.122806	0.823331
884.432522	0.846338
884.742197	0.865732
885.051831	0.878082
885.361424	0.888268
885.670975	0.900859
885.980485	0.911655
886.289954	0.916657
886.599382	0.922357
886.908768	0.925713
887.218113	0.931781
887.527417	0.936877
887.836680	0.940395
888.145901	0.941973
888.455082	0.945087
888.764221	0.948451
889.073319	0.951184
889.382376	0.951211
889.691392	0.952464
890.000366	0.949646
890.309300	0.951652
890.618193	0.951223
890.927044	0.950184
891.235855	0.949274
891.544625	0.948985
891.853353	0.950566
892.162041	0.947960
892.470687	0.942179
892.779293	0.936203
893.087858	0.931530
893.396381	0.923721
893.704864	0.909106
894.013306	0.886516
894.321707	0.858726
894.630068	0.844293
894.938387	0.838359
895.246665	0.839669
895.554903	0.851619
895.863100	0.866212
896.171256	0.883412
896.479371	0.903810
896.787446	0.916368
897.095480	0.922927
897.403473	0.925888
897.711425	0.930609
898.019336	0.937682
898.327207	0.940190
898.635038	0.943190
898.942827	0.943654
899.250576	0.946300
899.558284	0.950486
899.865952	0.951651
900.173579	0.953709
900.481165	0.954722
900.788711	0.958726
901.096216	0.959502
901.403681	0.960262
901.711105	0.961532
902.018489	0.961832
902.325832	0.961274
902.633135	0.959816
902.940397	0.954643
903.247619	0.941025
903.554800	0.915343
903.861941	0.874811
904.169041	0.836802
904.476101	0.819183
904.783121	0.819991
905.090100	0.838014
905.397039	0.859304
905.703938	0.881555
906.010796	0.902451
906.317614	0.918948
906.624391	0.932430
906.931129	0.941351
907.237826	0.950005
907.544483	0.958440
907.851099	0.962233
908.157675	0.965632
908.464211	0.969138
908.770707	0.970623
909.077163	0.972415
909.383578	0.974189
909.689954	0.974764
909.996289	0.975266
910.302584	0.976920
910.608839	0.978583
910.915054	0.976843
911.221229	0.977183
911.527363	0.976155
911.833458	0.975843
912.139513	0.975924
912.445527	0.975027
912.751502	0.973025
913.057436	0.971633
913.363331	0.968627
913.669186	0.964595
913.975000	0.959699
914.280775	0.953308
914.586510	0.946249
914.892205	0.932270
915.197859	0.910190
915.503475	0.882282
915.809050	0.861882
916.114585	0.856207
916.420081	0.853038
916.725536	0.849876
917.030952	0.858717
917.336328	0.872635
917.641665	0.887476
917.946961	0.902562
918.252218	0.915011
918.557435	0.924877
918.862612	0.933037
919.167750	0.938790
919.472848	0.945557
919.777906	0.951382
920.082925	0.955757
920.387904	0.959821
920.692843	0.961990
920.997743	0.962218
921.302603	0.965588
921.607423	0.968342
921.912204	0.970740
922.216946	0.970554
922.521647	0.971248
922.826310	0.974910
923.130932	0.975893
923.435516	0.977131
923.740059	0.977208
924.044564	0.977758
924.349028	0.979238
924.653454	0.981762
924.957840	0.984082
925.262186	0.983740
925.566493	0.984067
925.870761	0.984598
926.174989	0.986148
926.479178	0.987733
926.783328	0.986648
927.087438	0.988946
927.391509	0.987273
927.695541	0.988922
927.999533	0.988958
928.303486	0.988693
928.607400	0.990423
928.911275	0.988416
929.215110	0.990421
929.518906	0.989955
929.822663	0.988275
930.126381	0.989981
930.430060	0.990262
930.733699	0.989804
931.037299	0.987751
931.340861	0.990197
931.644383	0.989047
931.947866	0.988596
932.251309	0.989957
932.554714	0.989775
932.858080	0.989920
933.161407	0.989958
933.464694	0.990539
933.767943	0.989379
934.071153	0.989794
934.374323	0.990996
934.677455	0.990659
934.980548	0.991219
935.283602	0.988511
935.586617	0.990997
935.889593	0.990232
936.192530	0.989604
936.495428	0.990844
936.798287	0.989750
937.101108	0.989578
937.403890	0.987640
937.706632	0.987549
938.009336	0.985481
938.312002	0.984950
938.614628	0.983581
938.917216	0.982316
939.219765	0.981165
939.522275	0.982317
939.824747	0.982062
940.127179	0.981835
940.429573	0.984090
940.731929	0.982830
941.034246	0.983861
941.336524	0.983425
941.638763	0.985654
941.940964	0.985144
942.243126	0.985349
942.545250	0.987115
942.847335	0.986877
943.149381	0.986957
943.451389	0.987449
943.753359	0.987646
944.055290	0.990250
944.357182	0.989248
944.659036	0.987715
944.960851	0.988649
945.262628	0.988283
945.564367	0.989336
945.866067	0.990531
946.167729	0.989132
946.469352	0.988311
946.770937	0.988307
947.072484	0.990987
947.373992	0.989011
947.675462	0.989087
947.976893	0.989394
948.278286	0.988973
948.579641	0.991948
948.880958	0.990560
949.182236	0.991229
949.483476	0.990076
949.784678	0.989071
950.085841	0.989913
950.386967	0.990608
950.688054	0.989126
950.989103	0.990062
951.290114	0.989580
951.591087	0.988459
951.892021	0.989343
952.192917	0.988149
952.493776	0.986844
952.794596	0.986665
953.095378	0.987271
953.396122	0.986600
953.696828	0.987227
953.997496	0.988830
954.298126	0.990133
954.598718	0.990036
954.899272	0.989980
955.199788	0.989834
955.500266	0.990503
955.800706	0.992257
956.101108	0.992690
956.401472	0.992624
956.701798	0.993186
957.002087	0.993122
957.302337	0.992302
957.602550	0.994403
957.902724	0.993284
958.202861	0.994330
958.502960	0.994779
958.803022	0.994039
959.103045	0.996168
959.403031	0.994986
959.702979	0.994965
960.002889	0.995102
960.302762	0.994871
960.602596	0.995021
960.902393	0.994008
961.202153	0.995735
961.501875	0.996335
961.801559	0.996401
962.101205	0.996059
962.400814	0.995343
962.700385	0.995638
962.999918	0.994394
963.299414	0.996217
963.598873	0.995215
963.898293	0.994583
964.197677	0.997041
964.497022	0.995006
964.796331	0.997042
965.095601	0.997174
965.394835	0.995327
965.694030	0.996965
965.993189	0.997381
966.292309	0.995818
966.591393	0.997729
966.890439	0.996208
967.189447	0.996446
967.488419	0.996872
967.787353	0.995484
968.086249	0.995852
968.385108	0.996246
968.683930	0.996085
968.982714	0.997173
969.281462	0.996562
969.580172	0.996462
969.878844	0.996842
970.177480	0.995454
970.476078	0.996330
970.774639	0.996292
971.073162	0.997359
971.371649	0.996244
971.670098	0.994860
971.968510	0.997866
972.266885	0.995717
972.565223	0.995240
972.863524	0.995522
973.161788	0.996217
973.460014	0.998233
973.758204	0.995063
974.056356	0.996739
974.354471	0.994415
974.652550	0.996277
974.950591	0.996650
975.248595	0.995940
975.546563	0.996249
975.844493	0.997295
976.142386	0.996001
976.440243	0.996875
976.738062	0.996823
977.035845	0.997291
977.333590	0.996228
977.631299	0.997343
977.928971	0.995761
978.226606	0.996345
978.524204	0.995814
978.821765	0.997952
979.119290	0.996025
979.416777	0.995247
979.714228	0.996788
980.011642	0.994967
980.309020	0.996670
980.606360	0.996357
980.903664	0.999069
981.200931	0.995993
981.498162	0.994319
981.795356	0.993410
982.092513	0.992844
982.389633	0.994684
982.686717	0.989898
982.983764	0.990701
983.280775	0.989166
983.577749	0.989202
983.874686	0.991722
984.171587	0.990970
984.468451	0.992588
984.765279	0.993997
985.062070	0.992650
985.358824	0.994936
985.655543	0.994462
985.952224	0.995950
986.248869	0.995644
986.545478	0.997096
986.842050	0.998261
987.138586	0.996029
987.435086	0.996652
987.731549	0.998436
988.027975	0.997174
988.324366	0.997671
988.620719	0.997332
988.917037	0.995591
989.213318	0.998483
989.509563	0.997688
989.805772	0.999236
990.101944	0.997862
990.398080	0.996769
990.694180	0.997136
990.990244	0.997143
991.286271	0.997498
991.582262	0.997948
991.878217	0.996897
992.174136	0.997801
992.470019	0.997688
992.765865	0.997936
993.061676	0.998098
993.357450	0.998190
993.653188	0.997477
993.948890	0.996223
994.244556	0.997668
994.540186	0.996358
994.835780	0.996664
995.131337	0.997059
995.426859	0.995513
995.722345	0.997627
996.017795	0.995286
996.313208	0.994995
996.608586	0.994850
996.903928	0.996142
997.199234	0.996370
997.494504	0.995539
997.789738	0.995640
998.084936	0.995594
998.380099	0.996814
998.675225	0.996614
998.970316	0.997512
999.265371	0.997947
999.560390	0.999013
999.855373	0.998463
1000.150320	0.998179
1000.445232	0.998046
1000.740108	0.997928
1001.034948	0.998142
1001.329752	0.998239
1001.624521	0.998661
1001.919254	0.997605
1002.213951	0.998601
1002.508613	0.997672
1002.803239	0.998349
1003.097829	0.998075
1003.392384	0.998933
1003.686903	0.998469
1003.981386	0.997963
1004.275834	0.998830
1004.570246	0.998783
1004.864623	0.998727
1005.158964	0.999344
1005.453270	0.998134
1005.747540	0.996741
1006.041775	0.998749
1006.335974	0.997822
1006.630138	0.998888
1006.924266	0.998800
1007.218359	1.000098
1007.512416	0.999859
1007.806438	0.998852
1008.100425	0.998910
1008.394376	0.998241
1008.688292	0.998595
1008.982172	1.001116
1009.276017	0.999152
1009.569827	0.998504
1009.863602	0.998231
1010.157341	0.999437
1010.451045	0.999421
1010.744714	0.999420
1011.038347	0.998583
1011.331945	0.998756
1011.625508	0.997577
1011.919036	0.998397
1012.212528	0.998751
1012.505986	0.997471
1012.799408	0.998162
1013.092795	0.998694
1013.386147	0.998700
1013.679464	0.997802
1013.972745	0.997063
1014.265992	0.996894
1014.559204	0.999000
1014.852380	0.999133
1015.145521	0.998984
1015.438628	0.998866
1015.731699	0.997904
1016.024736	0.998884
1016.317737	0.998118
1016.610703	0.998591
1016.903635	0.997903
1017.196531	0.998710
1017.489393	0.999640
1017.782219	0.998972
1018.075011	0.998279
1018.367768	0.998070
1018.660490	0.999419
1018.953177	0.999419
1019.245829	0.999419
