Dividing Wavelength (nm)	Counts (n)	Blue Motor Position (mm): 0.000000	Red Motor Position (mm): 5.600000	
326.493990	1.001350
326.888308	1.001350
327.282561	1.001350
327.676750	1.000909
328.070874	0.999862
328.464933	0.999763
328.858929	0.999440
329.252859	0.998677
329.646726	1.000049
330.040528	1.000026
330.434265	1.000220
330.827938	1.000117
331.221547	1.001551
331.615091	1.000062
332.008571	1.001049
332.401986	1.000252
332.795338	1.000785
333.188625	0.998861
333.581847	1.000561
333.975006	0.999908
334.368100	1.000598
334.761129	1.000555
335.154095	1.001634
335.546996	0.998485
335.939833	0.992775
336.332606	0.993608
336.725315	0.994461
337.117960	0.994454
337.510540	0.993483
337.903056	0.994279
338.295508	0.994292
338.687896	0.993930
339.080220	0.994663
339.472480	0.993749
339.864676	0.994417
340.256807	0.993121
340.648875	0.995084
341.040879	0.995010
341.432818	0.993126
341.824694	0.994032
342.216506	0.994079
342.608253	0.994720
342.999937	0.992837
343.391557	0.992770
343.783113	0.993947
344.174605	0.993847
344.566033	0.994148
344.957397	0.991957
345.348697	0.994209
345.739934	0.993070
346.131106	0.993895
346.522215	0.992745
346.913260	0.994095
347.304241	0.993151
347.695159	0.992559
348.086012	0.992410
348.476802	0.995346
348.867528	0.993510
349.258191	0.992427
349.648789	0.993758
350.039324	0.993932
350.429796	0.994043
350.820203	0.993181
351.210548	0.993259
351.600828	0.993706
351.991045	0.993439
352.381198	0.992891
352.771288	0.994214
353.161314	0.992193
353.551276	0.995143
353.941175	0.993120
354.331010	0.993527
354.720782	0.993472
355.110490	0.992314
355.500135	0.992890
355.889717	0.992387
356.279235	0.992520
356.668689	0.992919
357.058080	0.992899
357.447408	0.994090
357.836672	0.993802
358.225873	0.993757
358.615010	0.993121
359.004084	0.994290
359.393095	0.993731
359.782043	0.992943
360.170927	0.992445
360.559748	0.994151
360.948505	0.991601
361.337199	0.992029
361.725830	0.991567
362.114398	0.992649
362.502903	0.992997
362.891344	0.993665
363.279722	0.992303
363.668037	0.992257
364.056289	0.993406
364.444478	0.992143
364.832603	0.993210
365.220665	0.991717
365.608665	0.992296
365.996601	0.991837
366.384474	0.991672
366.772284	0.992165
367.160031	0.990803
367.547715	0.990627
367.935336	0.991579
368.322893	0.991324
368.710388	0.989607
369.097820	0.991583
369.485189	0.990124
369.872495	0.989576
370.259738	0.988287
370.646918	0.988962
371.034035	0.988734
371.421090	0.987940
371.808081	0.985416
372.195010	0.985102
372.581875	0.982341
372.968678	0.979689
373.355418	0.978385
373.742096	0.973636
374.128710	0.971716
374.515262	0.967359
374.901751	0.964601
375.288177	0.961216
375.674540	0.955962
376.060841	0.951198
376.447079	0.945476
376.833254	0.940079
377.219367	0.935398
377.605417	0.927891
377.991404	0.922422
378.377329	0.915260
378.763191	0.910312
379.148991	0.901907
379.534727	0.894755
379.920402	0.885595
380.306013	0.880554
380.691563	0.869097
381.077049	0.860571
381.462474	0.854708
381.847835	0.844297
382.233134	0.835643
382.618371	0.834333
383.003545	0.817638
383.388657	0.812770
383.773706	0.804182
384.158693	0.797918
384.543618	0.789011
384.928480	0.779886
385.313280	0.767364
385.698017	0.766561
386.082692	0.753765
386.467305	0.749471
386.851856	0.741282
387.236344	0.734003
387.620770	0.727142
388.005133	0.720215
388.389435	0.714079
388.773674	0.709523
389.157851	0.700338
389.541965	0.696695
389.926018	0.702801
390.310008	0.688019
390.693936	0.684543
391.077802	0.676648
391.461606	0.677361
391.845348	0.666055
392.229027	0.665754
392.612645	0.662550
392.996200	0.648959
393.379694	0.643112
393.763125	0.632608
394.146494	0.637136
394.529801	0.626756
394.913047	0.620768
395.296230	0.624987
395.679351	0.615725
396.062410	0.612867
396.445408	0.616057
396.828343	0.610946
397.211217	0.606060
397.594028	0.618589
397.976778	0.607680
398.359466	0.604136
398.742092	0.599591
399.124656	0.611946
399.507158	0.600105
399.889598	0.597505
400.271977	0.588521
400.654294	0.593565
401.036549	0.592507
401.418742	0.595621
401.800874	0.581384
402.182944	0.578968
402.564952	0.569846
402.946898	0.572473
403.328783	0.573016
403.710606	0.583818
404.092367	0.559177
404.474067	0.563419
404.855705	0.563249
405.237282	0.572220
405.618797	0.557744
406.000250	0.553599
406.381642	0.544808
406.762972	0.548967
407.144240	0.548068
407.525447	0.548233
407.906593	0.540357
408.287677	0.535923
408.668700	0.544025
409.049661	0.537651
409.430560	0.533504
409.811399	0.542031
410.192176	0.523569
410.572891	0.530630
410.953545	0.518711
411.334138	0.532235
411.714669	0.524964
412.095139	0.536345
412.475547	0.521885
412.855894	0.523248
413.236180	0.522356
413.616405	0.527531
413.996568	0.518338
414.376670	0.523935
414.756711	0.529053
415.136691	0.526055
415.516609	0.517864
415.896466	0.513685
416.276262	0.509831
416.655997	0.511665
417.035670	0.492986
417.415283	0.484945
417.794834	0.489449
418.174324	0.494829
418.553753	0.503559
418.933121	0.486201
419.312428	0.480110
419.691674	0.485737
420.070859	0.474372
420.449983	0.482451
420.829045	0.471868
421.208047	0.480942
421.586988	0.473790
421.965867	0.472792
422.344686	0.461775
422.723444	0.474283
423.102141	0.490752
423.480777	0.463858
423.859352	0.484150
424.237866	0.461718
424.616319	0.462348
424.994712	0.453511
425.373044	0.463608
425.751314	0.451773
426.129524	0.468043
426.507673	0.452074
426.885762	0.445387
427.263789	0.450982
427.641756	0.460706
428.019662	0.450885
428.397508	0.449830
428.775292	0.453973
429.153016	0.445926
429.530679	0.452686
429.908282	0.445746
430.285824	0.455762
430.663305	0.433985
431.040726	0.455195
431.418086	0.455996
431.795385	0.446860
432.172624	0.445521
432.549802	0.446685
432.926920	0.445188
433.303977	0.444815
433.680974	0.441553
434.057910	0.440418
434.434786	0.439805
434.811601	0.442499
435.188355	0.424705
435.565050	0.433629
435.941683	0.435741
436.318257	0.419960
436.694770	0.420658
437.071222	0.418047
437.447614	0.422978
437.823946	0.429641
438.200218	0.418773
438.576429	0.428992
438.952580	0.421423
439.328670	0.418323
439.704700	0.425036
440.080670	0.426220
440.456580	0.407242
440.832429	0.415200
441.208218	0.425992
441.583947	0.415284
441.959616	0.415509
442.335224	0.419621
442.710773	0.410863
443.086261	0.408234
443.461689	0.422896
443.837057	0.412570
444.212365	0.402567
444.587612	0.409108
444.962800	0.399093
445.337927	0.400499
445.712995	0.427149
446.088002	0.389452
446.462949	0.399750
446.837837	0.404377
447.212664	0.393773
447.587431	0.385177
447.962139	0.355771
448.336786	0.314707
448.711374	0.325191
449.085901	0.369085
449.460369	0.373745
449.834776	0.376778
450.209124	0.356070
450.583412	0.348786
450.957640	0.341533
451.331808	0.352946
451.705917	0.376550
452.079965	0.380787
452.453954	0.369430
452.827883	0.376045
453.201752	0.371200
453.575562	0.382642
453.949311	0.371062
454.323001	0.376859
454.696632	0.372650
455.070202	0.365270
455.443713	0.357288
455.817164	0.352021
456.190556	0.347980
456.563888	0.344673
456.937160	0.342522
457.310373	0.359471
457.683526	0.358026
458.056619	0.364158
458.429653	0.364572
458.802628	0.367806
459.175542	0.362480
459.548398	0.344869
459.921194	0.337343
460.293930	0.337518
460.666607	0.314996
461.039224	0.303396
461.411782	0.299159
461.784280	0.298196
462.156719	0.302513
462.529099	0.306885
462.901419	0.322734
463.273680	0.327233
463.645882	0.326404
464.018024	0.332337
464.390106	0.325341
464.762130	0.310110
465.134094	0.293068
465.505999	0.262003
465.877845	0.232702
466.249631	0.219922
466.621358	0.227053
466.993026	0.240964
467.364634	0.247400
467.736184	0.256087
468.107674	0.264834
468.479105	0.263735
468.850477	0.270569
469.221790	0.276974
469.593043	0.287498
469.964238	0.292487
470.335373	0.291579
470.706449	0.289920
471.077467	0.290868
471.448425	0.252736
471.819324	0.228472
472.190164	0.227674
472.560945	0.256386
472.931667	0.278615
473.302330	0.282654
473.672934	0.294856
474.043479	0.282817
474.413965	0.284683
474.784393	0.287794
475.154761	0.283148
475.525070	0.280128
475.895321	0.286261
476.265513	0.280344
476.635645	0.275406
477.005719	0.275504
477.375734	0.272002
477.745691	0.265291
478.115588	0.261846
478.485427	0.255403
478.855207	0.242379
479.224928	0.224756
479.594591	0.213029
479.964194	0.216555
480.333739	0.217423
480.703226	0.218907
481.072653	0.217578
481.442022	0.213029
481.811333	0.209495
482.180584	0.213142
482.549777	0.218405
482.918912	0.221939
483.287988	0.221390
483.657005	0.221342
484.025964	0.227449
484.394864	0.224921
484.763706	0.225760
485.132489	0.230590
485.501213	0.231321
485.869879	0.229556
486.238487	0.232949
486.607036	0.230717
486.975527	0.235410
487.343959	0.231160
487.712333	0.230360
488.080648	0.231627
488.448905	0.230927
488.817104	0.232051
489.185244	0.226888
489.553326	0.223700
489.921350	0.213430
490.289315	0.195954
490.657222	0.190883
491.025070	0.192309
491.392861	0.194182
491.760593	0.199937
492.128267	0.205531
492.495883	0.211081
492.863440	0.217369
493.230939	0.223568
493.598380	0.225013
493.965763	0.227388
494.333088	0.229707
494.700354	0.230765
495.067563	0.230020
495.434713	0.233259
495.801805	0.231202
496.168839	0.232611
496.535815	0.234261
496.902733	0.233884
497.269593	0.235472
497.636395	0.233251
498.003139	0.233554
498.369825	0.236605
498.736453	0.233081
499.103023	0.234493
499.469535	0.233869
499.835989	0.234138
500.202385	0.235053
500.568723	0.238737
500.935003	0.233317
501.301226	0.237909
501.667390	0.232018
502.033497	0.230362
502.399546	0.233326
502.765537	0.234876
503.131470	0.233496
503.497345	0.229791
503.863163	0.238939
504.228923	0.231376
504.594625	0.229847
504.960269	0.235476
505.325856	0.230849
505.691385	0.235113
506.056856	0.231761
506.422270	0.231420
506.787625	0.233616
507.152924	0.231142
507.518164	0.231557
507.883347	0.233338
508.248472	0.235146
508.613540	0.230199
508.978550	0.232437
509.343503	0.233107
509.708398	0.230978
510.073236	0.228364
510.438016	0.228128
510.802738	0.229428
511.167403	0.228284
511.532010	0.230193
511.896561	0.225707
512.261053	0.224520
512.625488	0.226614
512.989866	0.227041
513.354186	0.227066
513.718449	0.228950
514.082655	0.225273
514.446803	0.227679
514.810894	0.225312
515.174927	0.227993
515.538904	0.227315
515.902822	0.224279
516.266684	0.226622
516.630488	0.227755
516.994235	0.226611
517.357925	0.225483
517.721558	0.223473
518.085133	0.223131
518.448651	0.223035
518.812112	0.225489
519.175516	0.225043
519.538863	0.222905
519.902152	0.224327
520.265385	0.221229
520.628560	0.222943
520.991678	0.223462
521.354739	0.222081
521.717743	0.223303
522.080690	0.224053
522.443580	0.221168
522.806413	0.222199
523.169189	0.221130
523.531908	0.220335
523.894569	0.224337
524.257174	0.224070
524.619722	0.221583
524.982213	0.222824
525.344647	0.221629
525.707025	0.222514
526.069345	0.220715
526.431608	0.222158
526.793815	0.220248
527.155964	0.224056
527.518057	0.223321
527.880093	0.224054
528.242072	0.223015
528.603995	0.224635
528.965860	0.226581
529.327669	0.225224
529.689421	0.226155
530.051117	0.227248
530.412755	0.224781
530.774337	0.227466
531.135862	0.227536
531.497331	0.226949
531.858743	0.229886
532.220098	0.226710
532.581396	0.228690
532.942638	0.229440
533.303824	0.230344
533.664953	0.230104
534.026025	0.231951
534.387040	0.229936
534.747999	0.229510
535.108902	0.228569
535.469748	0.233846
535.830537	0.231466
536.191270	0.231932
536.551947	0.231436
536.912567	0.231405
537.273131	0.233203
537.633638	0.233625
537.994089	0.233682
538.354483	0.234936
538.714821	0.231807
539.075103	0.231747
539.435328	0.232333
539.795497	0.236011
540.155609	0.232574
540.515665	0.230718
540.875665	0.236440
541.235609	0.234853
541.595496	0.235109
541.955328	0.231406
542.315102	0.234392
542.674821	0.234957
543.034483	0.235208
543.394090	0.235072
543.753640	0.236992
544.113134	0.231806
544.472571	0.234964
544.831953	0.231965
545.191278	0.236422
545.550548	0.235807
545.909761	0.232391
546.268918	0.233387
546.628019	0.231335
546.987064	0.234156
547.346053	0.236145
547.704986	0.234097
548.063863	0.234081
548.422684	0.234604
548.781449	0.236133
549.140158	0.233873
549.498811	0.236687
549.857408	0.239835
550.215949	0.234593
550.574434	0.237854
550.932864	0.235715
551.291237	0.234077
551.649555	0.235884
552.007817	0.235379
552.366022	0.235978
552.724173	0.236617
553.082267	0.236804
553.440305	0.233596
553.798288	0.238075
554.156215	0.234732
554.514086	0.235356
554.871902	0.238535
555.229661	0.237868
555.587365	0.238328
555.945014	0.240844
556.302606	0.237410
556.660143	0.240187
557.017625	0.236610
557.375050	0.238833
557.732421	0.235736
558.089735	0.238276
558.446994	0.238034
558.804197	0.237020
559.161345	0.237350
559.518437	0.240563
559.875474	0.238095
560.232455	0.237899
560.589381	0.239064
560.946251	0.238879
561.303065	0.236471
561.659825	0.238049
562.016528	0.239356
562.373177	0.242469
562.729770	0.239607
563.086307	0.242011
563.442789	0.239361
563.799216	0.242486
564.155587	0.241398
564.511904	0.242304
564.868164	0.242809
565.224370	0.242199
565.580520	0.244004
565.936615	0.243888
566.292654	0.246843
566.648638	0.244070
567.004567	0.244594
567.360441	0.245481
567.716260	0.247368
568.072023	0.245068
568.427732	0.245894
568.783385	0.248292
569.138982	0.246388
569.494525	0.246415
569.850013	0.248735
570.205445	0.247199
570.560823	0.249684
570.916145	0.251744
571.271412	0.250222
571.626625	0.251654
571.981782	0.252189
572.336884	0.252967
572.691931	0.252599
573.046923	0.253595
573.401860	0.255010
573.756743	0.256961
574.111570	0.255669
574.466342	0.256327
574.821059	0.255315
575.175722	0.258087
575.530330	0.257962
575.884882	0.257930
576.239380	0.260324
576.593823	0.260804
576.948211	0.260264
577.302544	0.263459
577.656823	0.262913
578.011047	0.263062
578.365216	0.263978
578.719330	0.265819
579.073389	0.265719
579.427394	0.266772
579.781344	0.267721
580.135239	0.269145
580.489080	0.268738
580.842866	0.271789
581.196597	0.271890
581.550273	0.270426
581.903895	0.271245
582.257463	0.269267
582.610975	0.272864
582.964434	0.272415
583.317837	0.274542
583.671186	0.274871
584.024481	0.275393
584.377721	0.277444
584.730906	0.278189
585.084037	0.277385
585.437113	0.279502
585.790135	0.278846
586.143103	0.281497
586.496016	0.282787
586.848874	0.280289
587.201679	0.281143
587.554428	0.284274
587.907124	0.283051
588.259765	0.283401
588.612352	0.284391
588.964884	0.288065
589.317362	0.287818
589.669786	0.287712
590.022155	0.286163
590.374470	0.285377
590.726731	0.287568
591.078937	0.292289
591.431090	0.288594
591.783188	0.292746
592.135232	0.293498
592.487222	0.292948
592.839157	0.291370
593.191038	0.293596
593.542866	0.295639
593.894639	0.299115
594.246358	0.297001
594.598022	0.296573
594.949633	0.300508
595.301190	0.300778
595.652692	0.300267
596.004141	0.296079
596.355535	0.304015
596.706876	0.304746
597.058162	0.307341
597.409395	0.304502
597.760573	0.302069
598.111698	0.305387
598.462768	0.305969
598.813785	0.307301
599.164748	0.308565
599.515657	0.308898
599.866511	0.312434
600.217312	0.307260
600.568060	0.312988
600.918753	0.309093
601.269392	0.310145
601.619978	0.313523
601.970510	0.311198
602.320988	0.311355
602.671412	0.309174
603.021783	0.311252
603.372100	0.312655
603.722363	0.312219
604.072572	0.312989
604.422728	0.312671
604.772830	0.314896
605.122878	0.314761
605.472872	0.314942
605.822813	0.313509
606.172701	0.316513
606.522534	0.313686
606.872314	0.313505
607.222041	0.314635
607.571714	0.312775
607.921333	0.314084
608.270899	0.313760
608.620411	0.310718
608.969870	0.314527
609.319276	0.314808
609.668627	0.314162
610.017926	0.312923
610.367171	0.311557
610.716362	0.312077
611.065500	0.312409
611.414585	0.311193
611.763616	0.311776
612.112594	0.312063
612.461518	0.311582
612.810389	0.309037
613.159207	0.311782
613.507971	0.313730
613.856682	0.309505
614.205340	0.311199
614.553945	0.307984
614.902496	0.311625
615.250994	0.309645
615.599439	0.310236
615.947830	0.309780
616.296169	0.310733
616.644454	0.310274
616.992686	0.310311
617.340864	0.308576
617.688990	0.311648
618.037063	0.308262
618.385082	0.310074
618.733048	0.307349
619.080961	0.309416
619.428821	0.308783
619.776628	0.308260
620.124382	0.310351
620.472083	0.310588
620.819731	0.309949
621.167326	0.313851
621.514868	0.313332
621.862357	0.317784
622.209793	0.317498
622.557176	0.319987
622.904506	0.320892
623.251783	0.323063
623.599007	0.324938
623.946179	0.324903
624.293297	0.326906
624.640363	0.330908
624.987376	0.331202
625.334336	0.333651
625.681243	0.336000
626.028097	0.336799
626.374899	0.337832
626.721647	0.338035
627.068343	0.341128
627.414987	0.342592
627.761577	0.344627
628.108115	0.343149
628.454600	0.347693
628.801032	0.345435
629.147412	0.347563
629.493739	0.347660
629.840014	0.350768
630.186236	0.348198
630.532405	0.353962
630.878521	0.351122
631.224585	0.353522
631.570597	0.356864
631.916556	0.355611
632.262462	0.355878
632.608316	0.357492
632.954117	0.358454
633.299866	0.359624
633.645562	0.359956
633.991206	0.364495
634.336797	0.367266
634.682336	0.369359
635.027823	0.371006
635.373257	0.371275
635.718639	0.375217
636.063968	0.374381
636.409245	0.380095
636.754470	0.380666
637.099642	0.382862
637.444762	0.386408
637.789829	0.385299
638.134845	0.388903
638.479808	0.390076
638.824719	0.389785
639.169577	0.393898
639.514383	0.392610
639.859137	0.396972
640.203839	0.396616
640.548489	0.396982
640.893086	0.398503
641.237632	0.399968
641.582125	0.398439
641.926566	0.400890
642.270955	0.400174
642.615292	0.400718
642.959576	0.399772
643.303809	0.400986
643.647990	0.399974
643.992118	0.400329
644.336195	0.404244
644.680219	0.402123
645.024192	0.403342
645.368112	0.396666
645.711981	0.395671
646.055797	0.391040
646.399562	0.393437
646.743274	0.385432
647.086935	0.382664
647.430544	0.382963
647.774101	0.381681
648.117606	0.381785
648.461059	0.381876
648.804460	0.384407
649.147810	0.389768
649.491108	0.391752
649.834354	0.392993
650.177548	0.398732
650.520690	0.403274
650.863781	0.405020
651.206820	0.404340
651.549807	0.408948
651.892742	0.412881
652.235626	0.411933
652.578458	0.413456
652.921238	0.419766
653.263967	0.417180
653.606644	0.421282
653.949269	0.421123
654.291843	0.424879
654.634365	0.421330
654.976836	0.424475
655.319255	0.425073
655.661622	0.426464
656.003938	0.426879
656.346203	0.429504
656.688416	0.427636
657.030577	0.430883
657.372687	0.432431
657.714746	0.433434
658.056753	0.430801
658.398708	0.434232
658.740612	0.435503
659.082465	0.431651
659.424266	0.432818
659.766016	0.431813
660.107715	0.434801
660.449362	0.433478
660.790958	0.433844
661.132503	0.434013
661.473996	0.432035
661.815438	0.433179
662.156829	0.433233
662.498168	0.434005
662.839456	0.435493
663.180693	0.433053
663.521879	0.433004
663.863013	0.433527
664.204097	0.432196
664.545129	0.429236
664.886110	0.429793
665.227040	0.426967
665.567918	0.429740
665.908746	0.427581
666.249522	0.427198
666.590248	0.428476
666.930922	0.426368
667.271545	0.425073
667.612118	0.425583
667.952639	0.426933
668.293109	0.425882
668.633528	0.428491
668.973896	0.428620
669.314213	0.428457
669.654480	0.430349
669.994695	0.431376
670.334859	0.431585
670.674973	0.431750
671.015035	0.431613
671.355047	0.432416
671.695008	0.433161
672.034918	0.434896
672.374777	0.434344
672.714585	0.435130
673.054342	0.435045
673.394049	0.435543
673.733705	0.432887
674.073310	0.434432
674.412864	0.436890
674.752368	0.437421
675.091820	0.438215
675.431223	0.442743
675.770574	0.442241
676.109875	0.445383
676.449125	0.445371
676.788324	0.447438
677.127473	0.453154
677.466571	0.452706
677.805619	0.454091
678.144616	0.455287
678.483562	0.457028
678.822458	0.459777
679.161303	0.460339
679.500098	0.460724
679.838842	0.462972
680.177535	0.462553
680.516179	0.461355
680.854771	0.459863
681.193314	0.453129
681.531805	0.444737
681.870247	0.433354
682.208638	0.425462
682.546978	0.425071
682.885268	0.426144
683.223508	0.432697
683.561697	0.435866
683.899836	0.438968
684.237925	0.442374
684.575963	0.444780
684.913951	0.448029
685.251889	0.443656
685.589776	0.445540
685.927614	0.448471
686.265401	0.442408
686.603137	0.443586
686.940824	0.438072
687.278460	0.436150
687.616046	0.435372
687.953582	0.430056
688.291068	0.431465
688.628504	0.427105
688.965889	0.429705
689.303224	0.433716
689.640510	0.437324
689.977745	0.443704
690.314930	0.451867
690.652065	0.456332
690.989150	0.463752
691.326185	0.469386
691.663170	0.474321
692.000105	0.482035
692.336990	0.489181
692.673825	0.491348
693.010610	0.498251
693.347345	0.503758
693.684030	0.505575
694.020665	0.510077
694.357251	0.518891
694.693786	0.518035
695.030272	0.522599
695.366707	0.525938
695.703093	0.529483
696.039429	0.527223
696.375716	0.528991
696.711952	0.531859
697.048139	0.534284
697.384276	0.535814
697.720363	0.533770
698.056400	0.533144
698.392388	0.538153
698.728326	0.541705
699.064214	0.544704
699.400053	0.545692
699.735842	0.549008
700.071581	0.551094
700.407270	0.553928
700.742910	0.556509
701.078501	0.563772
701.414042	0.564449
701.749533	0.566755
702.084974	0.575736
702.420366	0.567528
702.755709	0.575857
703.091002	0.583583
703.426246	0.576500
703.761440	0.583197
704.096584	0.587845
704.431679	0.584536
704.766725	0.586544
705.101721	0.588403
705.436668	0.584386
705.771565	0.592109
706.106413	0.587518
706.441212	0.582845
706.775961	0.582137
707.110661	0.584401
707.445311	0.581443
707.779913	0.578994
708.114465	0.577047
708.448967	0.574407
708.783421	0.565606
709.117825	0.560545
709.452180	0.560404
709.786485	0.553859
710.120742	0.544182
710.454949	0.546132
710.789107	0.537919
711.123216	0.529330
711.457275	0.530523
711.791286	0.521347
712.125247	0.520585
712.459159	0.531464
712.793023	0.523655
713.126837	0.527875
713.460602	0.528551
713.794318	0.537994
714.127985	0.536736
714.461602	0.546778
714.795171	0.549685
715.128691	0.558407
715.462162	0.565494
715.795584	0.571229
716.128957	0.573626
716.462281	0.580595
716.795556	0.584487
717.128782	0.589166
717.461960	0.598688
717.795088	0.597326
718.128167	0.602574
718.461198	0.612533
718.794180	0.612490
719.127113	0.615902
719.459997	0.618903
719.792833	0.625573
720.125619	0.626158
720.458357	0.632818
720.791046	0.632512
721.123686	0.635618
721.456278	0.642021
721.788821	0.639310
722.121315	0.643678
722.453761	0.648448
722.786158	0.645857
723.118506	0.642501
723.450805	0.649913
723.783056	0.645987
724.115259	0.643294
724.447412	0.642499
724.779518	0.644537
725.111574	0.643182
725.443582	0.638840
725.775542	0.640446
726.107453	0.633486
726.439315	0.632964
726.771129	0.631304
727.102895	0.625026
727.434612	0.617395
727.766281	0.615606
728.097901	0.614683
728.429473	0.615197
728.760996	0.612930
729.092471	0.612979
729.423897	0.616896
729.755276	0.615848
730.086606	0.615976
730.417887	0.610360
730.749120	0.601187
731.080305	0.592452
731.411442	0.588133
731.742530	0.592905
732.073570	0.592731
732.404562	0.584956
732.735506	0.586513
733.066401	0.590549
733.397249	0.600010
733.728048	0.611663
734.058798	0.623892
734.389501	0.634939
734.720156	0.644679
735.050762	0.652842
735.381320	0.653501
735.711831	0.662876
736.042293	0.667937
736.372707	0.662804
736.703073	0.667832
737.033391	0.670000
737.363661	0.667034
737.693883	0.662399
738.024056	0.661713
738.354182	0.661930
738.684260	0.650559
739.014290	0.646454
739.344272	0.647721
739.674207	0.640948
740.004093	0.640304
740.333931	0.641271
740.663722	0.640922
740.993464	0.641749
741.323159	0.645130
741.652806	0.650656
741.982405	0.655011
742.311956	0.660105
742.641460	0.661598
742.970915	0.665291
743.300323	0.673497
743.629683	0.680105
743.958996	0.681826
744.288260	0.686377
744.617477	0.691556
744.946647	0.693340
745.275768	0.699246
745.604842	0.698437
745.933869	0.708836
746.262847	0.709376
746.591778	0.703521
746.920662	0.709168
747.249498	0.715532
747.578286	0.706622
747.907027	0.702205
748.235720	0.702736
748.564365	0.697550
748.892963	0.698338
749.221514	0.701499
749.550017	0.706576
749.878473	0.706322
750.206881	0.712282
750.535242	0.713851
750.863555	0.713495
751.191821	0.715015
751.520039	0.718021
751.848210	0.722597
752.176334	0.716011
752.504411	0.714508
752.832440	0.722262
753.160421	0.725451
753.488356	0.724563
753.816243	0.722580
754.144082	0.730276
754.471875	0.733561
754.799620	0.729336
755.127318	0.730521
755.454969	0.731061
755.782572	0.729751
756.110129	0.734882
756.437638	0.737453
756.765100	0.733702
757.092515	0.732098
757.419882	0.730765
757.747203	0.736051
758.074477	0.735253
758.401703	0.732917
758.728882	0.727777
759.056014	0.727076
759.383099	0.724956
759.710138	0.726950
760.037129	0.723844
760.364073	0.717389
760.690970	0.719459
761.017820	0.725449
761.344623	0.720918
761.671379	0.712304
761.998088	0.699976
762.324751	0.677495
762.651366	0.635221
762.977935	0.567644
763.304456	0.515815
763.630931	0.506359
763.957359	0.545681
764.283740	0.590189
764.610074	0.617264
764.936362	0.649014
765.262602	0.675808
765.588796	0.696577
765.914943	0.715133
766.241044	0.732481
766.567097	0.739978
766.893104	0.749020
767.219064	0.755880
767.544978	0.762438
767.870845	0.776555
768.196665	0.779717
768.522438	0.777865
768.848165	0.779478
769.173846	0.788534
769.499479	0.791934
769.825066	0.795544
770.150607	0.801329
770.476101	0.797086
770.801548	0.797444
771.126949	0.808412
771.452303	0.811753
771.777611	0.812015
772.102872	0.811566
772.428087	0.815497
772.753256	0.819823
773.078378	0.821750
773.403453	0.830985
773.728482	0.835473
774.053465	0.828318
774.378401	0.832641
774.703291	0.840750
775.028135	0.839383
775.352932	0.841202
775.677683	0.844398
776.002388	0.845995
776.327046	0.844323
776.651658	0.848124
776.976224	0.850764
777.300743	0.851780
777.625216	0.853901
777.949643	0.855602
778.274024	0.854872
778.598359	0.855888
778.922647	0.856201
779.246889	0.855375
779.571086	0.859386
779.895236	0.863148
780.219339	0.859675
780.543397	0.857119
780.867409	0.854960
781.191374	0.857450
781.515294	0.858761
781.839167	0.857528
782.162995	0.861396
782.486776	0.858741
782.810511	0.860137
783.134201	0.862618
783.457844	0.859537
783.781441	0.862284
784.104993	0.869162
784.428498	0.868875
784.751958	0.865353
785.075372	0.867540
785.398739	0.871157
785.722061	0.867209
786.045337	0.862719
786.368568	0.868329
786.691752	0.870577
787.014891	0.857254
787.337983	0.847092
787.661030	0.839669
787.984031	0.822642
788.306987	0.809553
788.629897	0.811783
788.952760	0.815517
789.275579	0.819941
789.598351	0.834566
789.921078	0.847759
790.243759	0.850110
790.566395	0.855405
790.888984	0.861068
791.211529	0.868189
791.534027	0.871304
791.856480	0.872239
792.178888	0.877333
792.501249	0.880131
792.823566	0.882031
793.145836	0.881402
793.468062	0.882632
793.790241	0.883705
794.112375	0.882652
794.434464	0.877446
794.756507	0.876300
795.078505	0.875667
795.400457	0.871034
795.722364	0.858795
796.044226	0.851998
796.366042	0.851151
796.687812	0.853977
797.009538	0.849602
797.331218	0.853283
797.652852	0.858288
797.974442	0.862446
798.295986	0.863590
798.617484	0.866346
798.938938	0.869837
799.260346	0.874419
799.581709	0.875545
799.903026	0.879213
800.224299	0.879043
800.545526	0.883459
800.866708	0.887911
801.187845	0.890956
801.508936	0.890245
801.829983	0.888172
802.150984	0.891058
802.471940	0.896593
802.792851	0.896351
803.113717	0.896480
803.434538	0.895281
803.755314	0.897241
804.076045	0.899168
804.396731	0.899316
804.717372	0.898347
805.037967	0.900630
805.358518	0.897982
805.679024	0.895948
805.999485	0.895040
806.319901	0.896247
806.640272	0.897714
806.960598	0.896315
807.280879	0.893217
807.601115	0.890140
807.921306	0.894053
808.241453	0.894381
808.561554	0.892284
808.881611	0.892604
809.201623	0.895103
809.521590	0.895129
809.841513	0.895589
810.161390	0.895498
810.481223	0.895649
810.801011	0.899950
811.120755	0.901535
811.440453	0.900349
811.760107	0.899429
812.079716	0.899233
812.399281	0.903029
812.718801	0.904722
813.038276	0.906098
813.357707	0.906398
813.677093	0.903151
813.996434	0.906258
814.315731	0.907709
814.634983	0.907953
814.954191	0.906660
815.273354	0.903753
815.592473	0.900359
815.911547	0.900075
816.230577	0.897786
816.549562	0.894311
816.868502	0.895568
817.187399	0.892525
817.506250	0.886112
817.825058	0.888436
818.143821	0.885131
818.462539	0.879928
818.781213	0.871132
819.099843	0.860080
819.418429	0.844898
819.736970	0.827445
820.055466	0.807040
820.373919	0.781914
820.692327	0.748269
821.010691	0.712614
821.329011	0.634002
821.647286	0.517324
821.965517	0.402526
822.283704	0.359462
822.601847	0.359581
822.919945	0.395962
823.237999	0.430291
823.556010	0.478070
823.873976	0.534791
824.191897	0.585843
824.509775	0.629757
824.827609	0.674417
825.145398	0.697588
825.463144	0.700350
825.780845	0.683866
826.098502	0.664499
826.416116	0.617490
826.733685	0.573511
827.051210	0.563657
827.368692	0.578787
827.686129	0.617928
828.003522	0.671664
828.320872	0.719463
828.638177	0.762817
828.955439	0.796868
829.272656	0.818250
829.589830	0.836524
829.906960	0.852444
830.224046	0.865467
830.541088	0.875876
830.858086	0.879071
831.175041	0.885976
831.491952	0.885017
831.808819	0.882286
832.125642	0.875318
832.442421	0.860302
832.759157	0.837027
833.075849	0.790170
833.392497	0.726361
833.709101	0.685350
834.025662	0.694132
834.342179	0.726824
834.658653	0.765332
834.975083	0.802777
835.291469	0.829699
835.607811	0.851668
835.924110	0.868738
836.240366	0.885056
836.556578	0.900650
836.872746	0.907424
837.188871	0.912510
837.504952	0.918884
837.820990	0.922084
838.136984	0.926618
838.452935	0.929514
838.768842	0.930083
839.084706	0.923021
839.400526	0.897937
839.716303	0.857286
840.032037	0.834154
840.347727	0.836576
840.663373	0.856240
840.978977	0.877372
841.294537	0.900484
841.610054	0.917693
841.925527	0.925389
842.240957	0.931326
842.556344	0.938503
842.871687	0.946100
843.186987	0.949467
843.502244	0.949594
843.817458	0.951426
844.132629	0.955223
844.447756	0.959044
844.762840	0.960325
845.077881	0.959817
845.392879	0.959319
845.707833	0.962443
846.022745	0.963824
846.337613	0.964473
846.652438	0.965568
846.967221	0.963647
847.281960	0.965026
847.596656	0.966535
847.911309	0.965974
848.225919	0.966377
848.540485	0.969201
848.855009	0.968792
849.169490	0.967642
849.483928	0.969719
849.798323	0.968771
850.112675	0.968501
850.426984	0.968920
850.741251	0.970044
851.055474	0.969592
851.369654	0.968017
851.683792	0.968910
851.997887	0.969792
852.311938	0.970012
852.625947	0.970577
852.939914	0.967630
853.253837	0.969803
853.567718	0.969685
853.881555	0.969681
854.195350	0.967456
854.509103	0.969495
854.822812	0.969798
855.136479	0.969813
855.450103	0.970074
855.763685	0.966767
856.077224	0.968213
856.390720	0.969262
856.704173	0.969670
857.017584	0.968351
857.330953	0.967012
857.644278	0.967507
857.957561	0.968884
858.270802	0.967829
858.584000	0.967540
858.897155	0.966284
859.210268	0.966972
859.523339	0.967133
859.836367	0.970014
860.149352	0.970417
860.462295	0.969128
860.775195	0.969477
861.088054	0.969304
861.400869	0.969113
861.713642	0.970598
862.026373	0.969547
862.339062	0.970664
862.651708	0.968034
862.964312	0.968065
863.276873	0.968466
863.589392	0.968472
863.901869	0.966171
864.214303	0.963982
864.526696	0.963987
864.839045	0.963312
865.151353	0.960083
865.463619	0.962294
865.775842	0.961506
866.088023	0.961743
866.400162	0.962131
866.712258	0.961958
867.024313	0.963857
867.336325	0.962236
867.648296	0.963055
867.960224	0.962063
868.272110	0.960996
868.583954	0.963343
868.895755	0.963073
869.207515	0.959783
869.519233	0.959203
869.830909	0.960120
870.142542	0.961254
870.454134	0.960872
870.765684	0.959725
871.077191	0.957092
871.388657	0.958276
871.700081	0.957270
872.011463	0.957371
872.322803	0.957801
872.634101	0.955555
872.945357	0.954274
873.256571	0.951769
873.567744	0.951139
873.878874	0.952601
874.189963	0.950281
874.501010	0.950788
874.812015	0.949452
875.122979	0.950433
875.433900	0.952551
875.744780	0.952980
876.055618	0.950603
876.366415	0.949208
876.677169	0.949486
876.987882	0.950042
877.298554	0.950403
877.609183	0.945588
877.919771	0.943534
878.230317	0.941342
878.540822	0.939463
878.851285	0.933347
879.161707	0.925406
879.472087	0.912353
879.782425	0.896039
880.092722	0.861454
880.402977	0.808816
880.713191	0.745951
881.023363	0.684397
881.333494	0.650843
881.643583	0.622060
881.953631	0.621933
882.263637	0.651737
882.573602	0.689646
882.883526	0.716895
883.193408	0.741718
883.503248	0.764733
883.813048	0.792584
884.122806	0.823488
884.432522	0.846998
884.742197	0.867840
885.051831	0.878442
885.361424	0.888396
885.670975	0.901263
885.980485	0.911042
886.289954	0.916171
886.599382	0.922988
886.908768	0.925826
887.218113	0.933332
887.527417	0.937639
887.836680	0.939902
888.145901	0.942307
888.455082	0.944736
888.764221	0.949443
889.073319	0.950198
889.382376	0.951556
889.691392	0.952144
890.000366	0.952304
890.309300	0.952864
890.618193	0.952895
890.927044	0.950300
891.235855	0.949253
891.544625	0.951344
891.853353	0.951078
892.162041	0.948652
892.470687	0.941484
892.779293	0.936530
893.087858	0.932620
893.396381	0.923499
893.704864	0.910275
894.013306	0.885736
894.321707	0.859252
894.630068	0.843028
894.938387	0.838776
895.246665	0.839691
895.554903	0.852331
895.863100	0.867308
896.171256	0.882937
896.479371	0.903127
896.787446	0.916728
897.095480	0.923040
897.403473	0.925734
897.711425	0.930473
898.019336	0.939255
898.327207	0.940360
898.635038	0.943351
898.942827	0.943620
899.250576	0.946818
899.558284	0.950780
899.865952	0.953036
900.173579	0.953459
900.481165	0.954245
900.788711	0.958238
901.096216	0.959424
901.403681	0.961335
901.711105	0.962686
902.018489	0.961904
902.325832	0.962311
902.633135	0.960426
902.940397	0.954042
903.247619	0.942138
903.554800	0.915339
903.861941	0.874643
904.169041	0.837769
904.476101	0.819411
904.783121	0.821522
905.090100	0.837689
905.397039	0.860509
905.703938	0.883003
906.010796	0.902108
906.317614	0.920575
906.624391	0.932001
906.931129	0.942172
907.237826	0.950169
907.544483	0.957183
907.851099	0.960858
908.157675	0.966101
908.464211	0.969598
908.770707	0.972144
909.077163	0.974300
909.383578	0.974360
909.689954	0.974466
909.996289	0.975278
910.302584	0.977589
910.608839	0.980085
910.915054	0.978001
911.221229	0.978360
911.527363	0.976807
911.833458	0.976927
912.139513	0.976264
912.445527	0.974321
912.751502	0.973037
913.057436	0.972264
913.363331	0.967650
913.669186	0.967287
913.975000	0.960071
914.280775	0.954280
914.586510	0.947022
914.892205	0.933727
915.197859	0.910909
915.503475	0.883353
915.809050	0.862130
916.114585	0.855690
916.420081	0.852528
916.725536	0.849917
917.030952	0.858778
917.336328	0.872251
917.641665	0.887538
917.946961	0.903753
918.252218	0.915450
918.557435	0.925653
918.862612	0.934529
919.167750	0.940335
919.472848	0.946018
919.777906	0.951332
920.082925	0.956854
920.387904	0.960905
920.692843	0.962477
920.997743	0.962904
921.302603	0.966186
921.607423	0.968556
921.912204	0.970677
922.216946	0.971049
922.521647	0.970750
922.826310	0.974346
923.130932	0.975072
923.435516	0.977471
923.740059	0.979716
924.044564	0.977656
924.349028	0.980325
924.653454	0.982991
924.957840	0.983660
925.262186	0.984662
925.566493	0.983366
925.870761	0.984267
926.174989	0.985556
926.479178	0.986702
926.783328	0.988175
927.087438	0.987446
927.391509	0.987742
927.695541	0.989751
927.999533	0.989995
928.303486	0.989360
928.607400	0.991387
928.911275	0.990201
929.215110	0.989856
929.518906	0.989549
929.822663	0.989414
930.126381	0.990963
930.430060	0.990224
930.733699	0.989726
931.037299	0.989772
931.340861	0.990525
931.644383	0.989973
931.947866	0.988992
932.251309	0.990194
932.554714	0.989391
932.858080	0.989805
933.161407	0.989237
933.464694	0.989492
933.767943	0.990118
934.071153	0.990828
934.374323	0.991862
934.677455	0.990018
934.980548	0.991795
935.283602	0.990667
935.586617	0.990580
935.889593	0.991664
936.192530	0.990873
936.495428	0.990608
936.798287	0.991164
937.101108	0.990579
937.403890	0.988671
937.706632	0.988321
938.009336	0.986213
938.312002	0.984829
938.614628	0.983737
938.917216	0.982262
939.219765	0.981509
939.522275	0.983493
939.824747	0.982261
940.127179	0.983079
940.429573	0.983813
940.731929	0.983621
941.034246	0.984125
941.336524	0.984253
941.638763	0.986991
941.940964	0.985891
942.243126	0.986498
942.545250	0.987602
942.847335	0.988973
943.149381	0.988145
943.451389	0.988256
943.753359	0.988486
944.055290	0.990308
944.357182	0.988518
944.659036	0.988508
944.960851	0.989518
945.262628	0.988613
945.564367	0.989996
945.866067	0.989860
946.167729	0.989983
946.469352	0.989760
946.770937	0.988458
947.072484	0.990486
947.373992	0.989343
947.675462	0.989275
947.976893	0.989789
948.278286	0.990488
948.579641	0.992099
948.880958	0.990517
949.182236	0.990410
949.483476	0.991085
949.784678	0.989880
950.085841	0.990534
950.386967	0.990868
950.688054	0.990110
950.989103	0.991220
951.290114	0.989017
951.591087	0.989113
951.892021	0.989769
952.192917	0.988306
952.493776	0.988955
952.794596	0.987315
953.095378	0.987616
953.396122	0.989014
953.696828	0.987784
953.997496	0.989400
954.298126	0.990849
954.598718	0.989883
954.899272	0.990759
955.199788	0.989735
955.500266	0.992814
955.800706	0.992816
956.101108	0.992878
956.401472	0.993641
956.701798	0.994340
957.002087	0.994080
957.302337	0.993170
957.602550	0.994898
957.902724	0.995157
958.202861	0.995120
958.502960	0.994892
958.803022	0.994604
959.103045	0.995812
959.403031	0.996717
959.702979	0.995051
960.002889	0.996220
960.302762	0.995596
960.602596	0.995908
960.902393	0.994936
961.202153	0.996567
961.501875	0.997865
961.801559	0.996011
962.101205	0.995982
962.400814	0.996611
962.700385	0.996570
962.999918	0.996615
963.299414	0.996615
963.598873	0.996371
963.898293	0.998312
964.197677	0.996684
964.497022	0.996839
964.796331	0.997868
965.095601	0.997462
965.394835	0.996747
965.694030	0.996116
965.993189	0.997601
966.292309	0.996347
966.591393	0.997827
966.890439	0.997592
967.189447	0.996653
967.488419	0.997984
967.787353	0.996407
968.086249	0.997020
968.385108	0.997141
968.683930	0.998274
968.982714	0.998081
969.281462	0.999124
969.580172	0.996295
969.878844	0.997431
970.177480	0.995918
970.476078	0.997936
970.774639	0.996181
971.073162	0.997775
971.371649	0.996015
971.670098	0.995886
971.968510	0.998544
972.266885	0.996303
972.565223	0.996276
972.863524	0.996440
973.161788	0.996091
973.460014	0.998179
973.758204	0.996324
974.056356	0.997069
974.354471	0.993564
974.652550	0.997399
974.950591	0.995774
975.248595	0.996232
975.546563	0.997120
975.844493	0.996905
976.142386	0.997053
976.440243	0.997240
976.738062	0.996324
977.035845	0.998396
977.333590	0.997425
977.631299	0.997067
977.928971	0.995450
978.226606	0.997679
978.524204	0.995619
978.821765	0.998359
979.119290	0.996772
979.416777	0.997153
979.714228	0.997146
980.011642	0.995674
980.309020	0.997590
980.606360	0.997894
980.903664	0.998376
981.200931	0.996501
981.498162	0.994413
981.795356	0.995533
982.092513	0.992852
982.389633	0.994928
982.686717	0.991010
982.983764	0.991259
983.280775	0.990093
983.577749	0.990409
983.874686	0.991887
984.171587	0.991493
984.468451	0.994987
984.765279	0.995969
985.062070	0.994963
985.358824	0.995428
985.655543	0.995678
985.952224	0.996161
986.248869	0.997049
986.545478	0.997790
986.842050	0.998774
987.138586	0.996690
987.435086	0.998148
987.731549	0.998864
988.027975	0.998175
988.324366	0.997975
988.620719	0.998075
988.917037	0.996712
989.213318	0.998034
989.509563	0.998995
989.805772	0.997805
990.101944	0.998421
990.398080	0.997569
990.694180	0.996820
990.990244	0.997862
991.286271	0.998177
991.582262	0.998492
991.878217	0.997255
992.174136	0.998645
992.470019	0.998123
992.765865	0.997921
993.061676	0.997694
993.357450	0.998529
993.653188	0.996495
993.948890	0.996795
994.244556	0.998244
994.540186	0.996880
994.835780	0.997072
995.131337	0.998015
995.426859	0.997121
995.722345	0.997669
996.017795	0.997491
996.313208	0.996056
996.608586	0.995378
996.903928	0.996699
997.199234	0.995999
997.494504	0.997411
997.789738	0.996640
998.084936	0.997579
998.380099	0.998315
998.675225	0.998496
998.970316	0.998192
999.265371	0.997759
999.560390	0.998426
999.855373	0.998320
1000.150320	0.998411
1000.445232	0.998174
1000.740108	0.998126
1001.034948	0.998244
1001.329752	0.999232
1001.624521	1.000065
1001.919254	0.998508
1002.213951	0.999009
1002.508613	0.997725
1002.803239	0.999497
1003.097829	0.999326
1003.392384	0.999163
1003.686903	0.998225
1003.981386	0.998914
1004.275834	0.999557
1004.570246	0.998305
1004.864623	0.999509
1005.158964	1.000633
1005.453270	0.999304
1005.747540	0.997457
1006.041775	0.998713
1006.335974	0.999083
1006.630138	0.999702
1006.924266	0.999668
1007.218359	1.000190
1007.512416	0.998812
1007.806438	0.999362
1008.100425	0.999427
1008.394376	0.998060
1008.688292	0.999374
1008.982172	1.001052
1009.276017	0.999923
1009.569827	0.999517
1009.863602	0.998437
1010.157341	1.000164
1010.451045	0.999510
1010.744714	0.999240
1011.038347	0.998497
1011.331945	0.998953
1011.625508	0.997907
1011.919036	0.998164
1012.212528	0.998596
1012.505986	0.998318
1012.799408	0.999554
1013.092795	0.999651
1013.386147	0.999501
1013.679464	0.999892
1013.972745	0.997785
1014.265992	0.998153
1014.559204	0.999722
1014.852380	0.999084
1015.145521	0.999402
1015.438628	0.998830
1015.731699	0.999439
1016.024736	0.998629
1016.317737	1.000049
1016.610703	0.998692
1016.903635	1.000601
1017.196531	0.999897
1017.489393	1.000168
1017.782219	0.999608
1018.075011	0.999542
1018.367768	0.998614
1018.660490	0.999209
1018.953177	0.999209
1019.245829	0.999209
