Dividing Wavelength (nm)	Counts (n)	Blue Motor Position (mm): 0.000000	Red Motor Position (mm): 19.000000	
326.493990	1.000689
326.888308	1.000689
327.282561	1.000689
327.676750	0.999743
328.070874	0.999534
328.464933	0.999320
328.858929	0.999286
329.252859	1.000323
329.646726	0.999404
330.040528	1.000183
330.434265	0.998889
330.827938	1.000871
331.221547	1.000198
331.615091	1.000171
332.008571	1.000231
332.401986	1.000345
332.795338	1.000674
333.188625	0.999349
333.581847	1.001459
333.975006	1.000797
334.368100	0.999523
334.761129	1.000186
335.154095	1.000946
335.546996	0.998491
335.939833	0.993719
336.332606	0.994232
336.725315	0.994147
337.117960	0.996214
337.510540	0.993314
337.903056	0.996087
338.295508	0.993521
338.687896	0.994606
339.080220	0.994718
339.472480	0.995348
339.864676	0.994057
340.256807	0.993847
340.648875	0.994870
341.040879	0.994970
341.432818	0.994540
341.824694	0.994803
342.216506	0.995354
342.608253	0.995009
342.999937	0.994246
343.391557	0.994281
343.783113	0.994427
344.174605	0.994277
344.566033	0.995688
344.957397	0.993927
345.348697	0.995085
345.739934	0.993681
346.131106	0.994241
346.522215	0.993489
346.913260	0.994318
347.304241	0.995214
347.695159	0.995483
348.086012	0.992855
348.476802	0.994223
348.867528	0.994007
349.258191	0.992973
349.648789	0.994658
350.039324	0.993938
350.429796	0.994524
350.820203	0.994123
351.210548	0.993777
351.600828	0.994186
351.991045	0.993995
352.381198	0.993303
352.771288	0.994505
353.161314	0.993373
353.551276	0.994474
353.941175	0.993861
354.331010	0.993469
354.720782	0.994963
355.110490	0.993989
355.500135	0.993975
355.889717	0.995416
356.279235	0.993589
356.668689	0.994132
357.058080	0.994842
357.447408	0.995634
357.836672	0.994088
358.225873	0.995315
358.615010	0.994730
359.004084	0.995326
359.393095	0.994071
359.782043	0.992780
360.170927	0.995887
360.559748	0.995436
360.948505	0.994550
361.337199	0.993764
361.725830	0.994415
362.114398	0.993876
362.502903	0.994191
362.891344	0.995642
363.279722	0.994157
363.668037	0.994683
364.056289	0.994121
364.444478	0.995187
364.832603	0.994640
365.220665	0.994928
365.608665	0.994289
365.996601	0.994916
366.384474	0.994086
366.772284	0.994095
367.160031	0.993912
367.547715	0.992973
367.935336	0.993909
368.322893	0.993893
368.710388	0.994629
369.097820	0.994573
369.485189	0.994027
369.872495	0.992502
370.259738	0.993347
370.646918	0.994305
371.034035	0.995234
371.421090	0.994081
371.808081	0.993914
372.195010	0.994252
372.581875	0.995146
372.968678	0.994747
373.355418	0.994032
373.742096	0.994124
374.128710	0.995763
374.515262	0.993799
374.901751	0.995069
375.288177	0.994746
375.674540	0.995444
376.060841	0.993295
376.447079	0.994768
376.833254	0.994544
377.219367	0.995049
377.605417	0.994727
377.991404	0.995157
378.377329	0.995208
378.763191	0.994658
379.148991	0.995351
379.534727	0.994843
379.920402	0.995476
380.306013	0.994077
380.691563	0.994890
381.077049	0.994685
381.462474	0.994707
381.847835	0.995216
382.233134	0.994850
382.618371	0.995319
383.003545	0.995716
383.388657	0.995371
383.773706	0.996175
384.158693	0.995388
384.543618	0.996338
384.928480	0.996201
385.313280	0.995126
385.698017	0.996086
386.082692	0.996055
386.467305	0.996016
386.851856	0.994944
387.236344	0.994933
387.620770	0.994201
388.005133	0.995931
388.389435	0.996009
388.773674	0.995490
389.157851	0.996675
389.541965	0.995110
389.926018	0.995993
390.310008	0.997145
390.693936	0.994781
391.077802	0.995863
391.461606	0.995026
391.845348	0.995717
392.229027	0.996809
392.612645	0.995506
392.996200	0.997015
393.379694	0.995799
393.763125	0.996244
394.146494	0.995944
394.529801	0.995854
394.913047	0.996555
395.296230	0.995228
395.679351	0.995731
396.062410	0.995049
396.445408	0.994781
396.828343	0.995001
397.211217	0.995319
397.594028	0.996368
397.976778	0.994501
398.359466	0.995322
398.742092	0.994554
399.124656	0.995005
399.507158	0.995133
399.889598	0.994958
400.271977	0.995949
400.654294	0.995337
401.036549	0.994953
401.418742	0.995262
401.800874	0.994411
402.182944	0.994608
402.564952	0.994384
402.946898	0.995283
403.328783	0.994634
403.710606	0.994299
404.092367	0.994224
404.474067	0.994079
404.855705	0.994831
405.237282	0.994318
405.618797	0.993666
406.000250	0.991960
406.381642	0.992886
406.762972	0.991549
407.144240	0.991841
407.525447	0.990148
407.906593	0.990655
408.287677	0.988107
408.668700	0.987626
409.049661	0.983758
409.430560	0.983594
409.811399	0.981580
410.192176	0.978800
410.572891	0.976750
410.953545	0.974762
411.334138	0.971713
411.714669	0.969436
412.095139	0.965865
412.475547	0.963027
412.855894	0.959081
413.236180	0.955537
413.616405	0.952803
413.996568	0.948572
414.376670	0.943205
414.756711	0.939463
415.136691	0.935051
415.516609	0.929663
415.896466	0.923162
416.276262	0.917280
416.655997	0.912378
417.035670	0.902994
417.415283	0.896419
417.794834	0.889727
418.174324	0.885236
418.553753	0.881362
418.933121	0.870232
419.312428	0.861086
419.691674	0.855061
420.070859	0.844579
420.449983	0.838848
420.829045	0.828140
421.208047	0.823080
421.586988	0.812333
421.965867	0.803216
422.344686	0.788989
422.723444	0.787004
423.102141	0.785551
423.480777	0.765648
423.859352	0.764891
424.237866	0.745054
424.616319	0.737629
424.994712	0.723749
425.373044	0.720623
425.751314	0.705079
426.129524	0.704811
426.507673	0.686287
426.885762	0.675835
427.263789	0.668324
427.641756	0.667020
428.019662	0.651792
428.397508	0.642703
428.775292	0.635934
429.153016	0.622686
429.530679	0.620117
429.908282	0.607506
430.285824	0.607223
430.663305	0.582809
431.040726	0.590883
431.418086	0.584869
431.795385	0.571641
432.172624	0.563007
432.549802	0.557204
432.926920	0.549935
433.303977	0.543148
433.680974	0.535571
434.057910	0.527929
434.434786	0.522446
434.811601	0.519150
435.188355	0.498264
435.565050	0.501858
435.941683	0.498994
436.318257	0.481034
436.694770	0.476403
437.071222	0.470983
437.447614	0.470915
437.823946	0.473072
438.200218	0.460559
438.576429	0.466086
438.952580	0.456466
439.328670	0.450779
439.704700	0.454309
440.080670	0.453001
440.456580	0.432465
440.832429	0.437814
441.208218	0.446797
441.583947	0.434610
441.959616	0.432548
442.335224	0.436174
442.710773	0.425596
443.086261	0.422471
443.461689	0.434987
443.837057	0.423733
444.212365	0.413163
444.587612	0.418543
444.962800	0.408434
445.337927	0.409196
445.712995	0.434558
446.088002	0.396512
446.462949	0.406576
446.837837	0.410336
447.212664	0.399546
447.587431	0.390582
447.962139	0.361386
448.336786	0.320563
448.711374	0.330104
449.085901	0.373973
449.460369	0.377985
449.834776	0.380896
450.209124	0.360796
450.583412	0.353131
450.957640	0.346223
451.331808	0.357282
451.705917	0.380264
452.079965	0.384769
452.453954	0.373021
452.827883	0.379858
453.201752	0.374825
453.575562	0.385974
453.949311	0.374253
454.323001	0.380253
454.696632	0.375922
455.070202	0.368726
455.443713	0.360309
455.817164	0.355122
456.190556	0.351256
456.563888	0.347587
456.937160	0.345387
457.310373	0.362391
457.683526	0.361105
458.056619	0.367279
458.429653	0.367688
458.802628	0.370749
459.175542	0.365238
459.548398	0.347820
459.921194	0.340295
460.293930	0.340478
460.666607	0.318252
461.039224	0.306167
461.411782	0.301729
461.784280	0.300968
462.156719	0.305474
462.529099	0.310033
462.901419	0.325729
463.273680	0.330340
463.645882	0.329984
464.018024	0.335436
464.390106	0.328469
464.762130	0.313436
465.134094	0.296366
465.505999	0.265796
465.877845	0.236297
466.249631	0.223260
466.621358	0.230625
466.993026	0.244572
467.364634	0.250678
467.736184	0.259240
468.107674	0.267981
468.479105	0.267281
468.850477	0.273941
469.221790	0.280533
469.593043	0.290875
469.964238	0.295902
470.335373	0.295273
470.706449	0.293300
471.077467	0.293949
471.448425	0.256541
471.819324	0.232119
472.190164	0.231293
472.560945	0.260056
472.931667	0.282142
473.302330	0.286243
473.672934	0.298213
474.043479	0.286492
474.413965	0.288299
474.784393	0.291953
475.154761	0.286539
475.525070	0.283574
475.895321	0.289426
476.265513	0.283694
476.635645	0.279069
477.005719	0.279090
477.375734	0.275679
477.745691	0.269236
478.115588	0.265684
478.485427	0.259467
478.855207	0.246207
479.224928	0.228804
479.594591	0.216860
479.964194	0.220089
480.333739	0.221265
480.703226	0.222520
481.072653	0.221414
481.442022	0.217081
481.811333	0.213595
482.180584	0.217106
482.549777	0.222328
482.918912	0.225661
483.287988	0.225448
483.657005	0.225153
484.025964	0.231328
484.394864	0.228884
484.763706	0.229271
485.132489	0.234289
485.501213	0.234895
485.869879	0.233425
486.238487	0.236546
486.607036	0.234326
486.975527	0.239161
487.343959	0.235031
487.712333	0.234043
488.080648	0.235213
488.448905	0.234512
488.817104	0.235744
489.185244	0.230234
489.553326	0.227257
489.921350	0.217163
490.289315	0.199374
490.657222	0.194590
491.025070	0.195869
491.392861	0.197816
491.760593	0.203531
492.128267	0.209079
492.495883	0.214445
492.863440	0.220744
493.230939	0.227219
493.598380	0.228429
493.965763	0.230694
494.333088	0.232917
494.700354	0.234585
495.067563	0.233148
495.434713	0.236473
495.801805	0.234686
496.168839	0.235772
496.535815	0.237341
496.902733	0.237074
497.269593	0.238828
497.636395	0.236673
498.003139	0.236673
498.369825	0.239853
498.736453	0.236336
499.103023	0.237805
499.469535	0.237480
499.835989	0.237512
500.202385	0.238564
500.568723	0.241741
500.935003	0.236740
501.301226	0.240751
501.667390	0.235501
502.033497	0.233425
502.399546	0.236485
502.765537	0.238037
503.131470	0.236684
503.497345	0.232878
503.863163	0.241573
504.228923	0.234663
504.594625	0.233416
504.960269	0.238812
505.325856	0.234030
505.691385	0.238377
506.056856	0.235072
506.422270	0.234626
506.787625	0.236966
507.152924	0.234538
507.518164	0.234829
507.883347	0.236559
508.248472	0.238528
508.613540	0.233646
508.978550	0.236177
509.343503	0.236252
509.708398	0.234067
510.073236	0.231622
510.438016	0.231752
510.802738	0.232890
511.167403	0.231706
511.532010	0.233826
511.896561	0.228779
512.261053	0.227876
512.625488	0.230096
512.989866	0.230061
513.354186	0.230435
513.718449	0.232184
514.082655	0.228847
514.446803	0.230704
514.810894	0.228613
515.174927	0.231245
515.538904	0.230566
515.902822	0.227417
516.266684	0.230066
516.630488	0.231137
516.994235	0.229978
517.357925	0.228660
517.721558	0.227021
518.085133	0.226591
518.448651	0.226679
518.812112	0.229052
519.175516	0.228374
519.538863	0.226177
519.902152	0.227608
520.265385	0.224374
520.628560	0.226574
520.991678	0.226821
521.354739	0.225779
521.717743	0.226875
522.080690	0.227457
522.443580	0.224585
522.806413	0.225821
523.169189	0.224815
523.531908	0.223917
523.894569	0.227298
524.257174	0.227389
524.619722	0.225150
524.982213	0.226222
525.344647	0.224926
525.707025	0.225835
526.069345	0.224080
526.431608	0.225718
526.793815	0.223628
527.155964	0.227708
527.518057	0.226535
527.880093	0.227625
528.242072	0.226173
528.603995	0.228246
528.965860	0.229950
529.327669	0.228583
529.689421	0.229573
530.051117	0.230448
530.412755	0.228198
530.774337	0.230467
531.135862	0.230978
531.497331	0.230438
531.858743	0.232956
532.220098	0.230030
532.581396	0.232493
532.942638	0.232771
533.303824	0.233451
533.664953	0.233782
534.026025	0.235434
534.387040	0.233286
534.747999	0.233120
535.108902	0.232431
535.469748	0.237130
535.830537	0.234931
536.191270	0.235369
536.551947	0.234827
536.912567	0.234672
537.273131	0.236688
537.633638	0.236718
537.994089	0.237216
538.354483	0.238230
538.714821	0.235176
539.075103	0.235022
539.435328	0.235694
539.795497	0.239504
540.155609	0.235915
540.515665	0.234429
540.875665	0.239761
541.235609	0.238495
541.595496	0.238601
541.955328	0.234969
542.315102	0.237593
542.674821	0.238548
543.034483	0.238771
543.394090	0.238388
543.753640	0.240501
544.113134	0.235043
544.472571	0.238536
544.831953	0.235349
545.191278	0.239693
545.550548	0.238944
545.909761	0.235818
546.268918	0.236362
546.628019	0.234830
546.987064	0.237503
547.346053	0.239643
547.704986	0.237103
548.063863	0.237435
548.422684	0.237794
548.781449	0.239840
549.140158	0.236951
549.498811	0.240161
549.857408	0.243035
550.215949	0.237778
550.574434	0.241054
550.932864	0.238954
551.291237	0.237790
551.649555	0.239258
552.007817	0.238810
552.366022	0.239558
552.724173	0.239868
553.082267	0.240161
553.440305	0.236916
553.798288	0.241498
554.156215	0.238091
554.514086	0.238628
554.871902	0.241528
555.229661	0.241070
555.587365	0.241604
555.945014	0.244007
556.302606	0.240781
556.660143	0.243583
557.017625	0.240073
557.375050	0.242432
557.732421	0.239289
558.089735	0.241285
558.446994	0.241550
558.804197	0.240520
559.161345	0.240470
559.518437	0.244091
559.875474	0.241329
560.232455	0.241104
560.589381	0.242260
560.946251	0.242312
561.303065	0.239978
561.659825	0.241381
562.016528	0.242721
562.373177	0.245758
562.729770	0.242819
563.086307	0.245100
563.442789	0.243008
563.799216	0.245734
564.155587	0.244360
564.511904	0.245859
564.868164	0.245717
565.224370	0.245566
565.580520	0.247293
565.936615	0.247036
566.292654	0.250233
566.648638	0.246974
567.004567	0.248013
567.360441	0.248530
567.716260	0.250345
568.072023	0.248390
568.427732	0.249112
568.783385	0.251747
569.138982	0.249778
569.494525	0.249149
569.850013	0.252294
570.205445	0.250286
570.560823	0.253186
570.916145	0.255198
571.271412	0.253207
571.626625	0.254758
571.981782	0.255241
572.336884	0.255978
572.691931	0.255746
573.046923	0.257301
573.401860	0.258379
573.756743	0.259929
574.111570	0.259122
574.466342	0.259428
574.821059	0.258881
575.175722	0.261113
575.530330	0.261180
575.884882	0.261414
576.239380	0.263570
576.593823	0.263891
576.948211	0.263478
577.302544	0.266683
577.656823	0.266353
578.011047	0.266091
578.365216	0.266859
578.719330	0.268954
579.073389	0.268758
579.427394	0.270056
579.781344	0.270739
580.135239	0.271972
580.489080	0.272121
580.842866	0.274820
581.196597	0.274623
581.550273	0.273546
581.903895	0.274497
582.257463	0.272434
582.610975	0.275754
582.964434	0.275207
583.317837	0.277663
583.671186	0.278282
584.024481	0.278204
584.377721	0.280712
584.730906	0.281579
585.084037	0.280318
585.437113	0.282779
585.790135	0.281807
586.143103	0.284629
586.496016	0.285768
586.848874	0.283426
587.201679	0.283979
587.554428	0.287478
587.907124	0.285830
588.259765	0.286852
588.612352	0.287097
588.964884	0.291485
589.317362	0.290622
589.669786	0.290619
590.022155	0.289273
590.374470	0.288678
590.726731	0.290506
591.078937	0.295322
591.431090	0.291581
591.783188	0.295789
592.135232	0.296200
592.487222	0.296401
592.839157	0.294496
593.191038	0.296811
593.542866	0.298433
593.894639	0.302043
594.246358	0.300054
594.598022	0.299838
594.949633	0.303298
595.301190	0.304025
595.652692	0.303275
596.004141	0.299039
596.355535	0.307167
596.706876	0.308103
597.058162	0.310071
597.409395	0.307129
597.760573	0.304997
598.111698	0.308214
598.462768	0.308912
598.813785	0.310344
599.164748	0.311273
599.515657	0.311711
599.866511	0.315226
600.217312	0.310322
600.568060	0.316178
600.918753	0.312006
601.269392	0.312570
601.619978	0.316214
601.970510	0.313821
602.320988	0.314113
602.671412	0.311996
603.021783	0.314346
603.372100	0.315773
603.722363	0.315146
604.072572	0.316178
604.422728	0.316094
604.772830	0.317950
605.122878	0.317731
605.472872	0.317774
605.822813	0.316883
606.172701	0.319393
606.522534	0.316454
606.872314	0.316539
607.222041	0.317613
607.571714	0.315740
607.921333	0.316980
608.270899	0.316794
608.620411	0.313505
608.969870	0.317513
609.319276	0.317732
609.668627	0.317351
610.017926	0.315894
610.367171	0.314433
610.716362	0.315170
611.065500	0.315495
611.414585	0.314028
611.763616	0.314744
612.112594	0.315197
612.461518	0.314633
612.810389	0.312439
613.159207	0.314765
613.507971	0.316282
613.856682	0.312294
614.205340	0.313612
614.553945	0.310220
614.902496	0.314614
615.250994	0.312210
615.599439	0.313150
615.947830	0.312837
616.296169	0.313574
616.644454	0.313103
616.992686	0.313460
617.340864	0.311128
617.688990	0.314563
618.037063	0.311260
618.385082	0.313062
618.733048	0.309981
619.080961	0.312293
619.428821	0.311732
619.776628	0.311059
620.124382	0.313426
620.472083	0.313449
620.819731	0.312683
621.167326	0.316673
621.514868	0.316601
621.862357	0.320642
622.209793	0.320373
622.557176	0.322688
622.904506	0.323974
623.251783	0.325975
623.599007	0.328210
623.946179	0.327558
624.293297	0.329670
624.640363	0.333391
624.987376	0.334183
625.334336	0.336517
625.681243	0.338918
626.028097	0.339649
626.374899	0.340259
626.721647	0.340788
627.068343	0.344273
627.414987	0.344972
627.761577	0.347521
628.108115	0.345438
628.454600	0.350538
628.801032	0.347418
629.147412	0.350025
629.493739	0.350482
629.840014	0.353516
630.186236	0.350756
630.532405	0.356067
630.878521	0.354172
631.224585	0.356105
631.570597	0.359695
631.916556	0.358119
632.262462	0.358063
632.608316	0.360429
632.954117	0.361147
633.299866	0.362013
633.645562	0.362776
633.991206	0.367145
634.336797	0.369946
634.682336	0.372212
635.027823	0.373416
635.373257	0.374162
635.718639	0.377627
636.063968	0.376719
636.409245	0.383045
636.754470	0.382980
637.099642	0.385525
637.444762	0.389109
637.789829	0.388074
638.134845	0.391690
638.479808	0.392623
638.824719	0.392191
639.169577	0.396609
639.514383	0.395164
639.859137	0.399218
640.203839	0.399496
640.548489	0.399731
640.893086	0.401039
641.237632	0.402765
641.582125	0.400927
641.926566	0.402746
642.270955	0.402793
642.615292	0.403407
642.959576	0.402369
643.303809	0.403464
643.647990	0.402560
643.992118	0.402770
644.336195	0.406902
644.680219	0.404806
645.024192	0.406122
645.368112	0.399675
645.711981	0.398185
646.055797	0.393992
646.399562	0.396335
646.743274	0.388139
647.086935	0.385483
647.430544	0.385743
647.774101	0.384835
648.117606	0.384215
648.461059	0.384267
648.804460	0.386557
649.147810	0.392043
649.491108	0.393907
649.834354	0.395568
650.177548	0.400692
650.520690	0.406228
650.863781	0.407552
651.206820	0.406547
651.549807	0.411241
651.892742	0.415256
652.235626	0.415202
652.578458	0.415643
652.921238	0.422027
653.263967	0.419472
653.606644	0.423658
653.949269	0.423260
654.291843	0.427421
654.634365	0.424104
654.976836	0.427098
655.319255	0.427283
655.661622	0.428891
656.003938	0.429428
656.346203	0.432074
656.688416	0.430186
657.030577	0.433284
657.372687	0.434982
657.714746	0.436199
658.056753	0.433166
658.398708	0.436695
658.740612	0.437586
659.082465	0.433831
659.424266	0.434795
659.766016	0.433950
660.107715	0.436781
660.449362	0.435629
660.790958	0.436003
661.132503	0.436668
661.473996	0.434381
661.815438	0.435562
662.156829	0.435785
662.498168	0.436092
662.839456	0.437925
663.180693	0.435426
663.521879	0.435676
663.863013	0.435847
664.204097	0.435074
664.545129	0.431466
664.886110	0.431941
665.227040	0.429485
665.567918	0.431870
665.908746	0.430328
666.249522	0.429770
666.590248	0.430576
666.930922	0.429177
667.271545	0.427279
667.612118	0.427597
667.952639	0.429624
668.293109	0.428095
668.633528	0.430861
668.973896	0.430875
669.314213	0.431375
669.654480	0.433048
669.994695	0.433376
670.334859	0.433798
670.674973	0.434244
671.015035	0.434207
671.355047	0.434480
671.695008	0.435506
672.034918	0.437817
672.374777	0.436438
672.714585	0.437726
673.054342	0.437721
673.394049	0.438069
673.733705	0.435508
674.073310	0.436476
674.412864	0.439679
674.752368	0.440471
675.091820	0.439893
675.431223	0.445004
675.770574	0.444837
676.109875	0.447952
676.449125	0.447734
676.788324	0.449989
677.127473	0.455217
677.466571	0.454492
677.805619	0.456108
678.144616	0.457328
678.483562	0.459314
678.822458	0.461975
679.161303	0.463171
679.500098	0.463472
679.838842	0.465008
680.177535	0.464511
680.516179	0.463034
680.854771	0.462151
681.193314	0.455501
681.531805	0.446985
681.870247	0.435558
682.208638	0.427912
682.546978	0.426605
682.885268	0.428154
683.223508	0.434836
683.561697	0.438577
683.899836	0.441362
684.237925	0.445158
684.575963	0.447520
684.913951	0.450512
685.251889	0.446218
685.589776	0.447982
685.927614	0.450448
686.265401	0.445147
686.603137	0.445779
686.940824	0.440472
687.278460	0.438297
687.616046	0.437501
687.953582	0.432473
688.291068	0.434040
688.628504	0.430150
688.965889	0.431786
689.303224	0.435987
689.640510	0.439896
689.977745	0.445509
690.314930	0.453717
690.652065	0.458094
690.989150	0.465968
691.326185	0.472430
691.663170	0.477096
692.000105	0.484014
692.336990	0.491234
692.673825	0.493413
693.010610	0.499713
693.347345	0.506216
693.684030	0.507251
694.020665	0.512234
694.357251	0.520583
694.693786	0.520348
695.030272	0.524770
695.366707	0.528235
695.703093	0.531344
696.039429	0.529340
696.375716	0.530953
696.711952	0.533998
697.048139	0.535967
697.384276	0.537962
697.720363	0.535798
698.056400	0.535199
698.392388	0.540465
698.728326	0.543481
699.064214	0.546602
699.400053	0.547119
699.735842	0.550621
700.071581	0.553519
700.407270	0.556468
700.742910	0.558949
701.078501	0.565952
701.414042	0.565900
701.749533	0.568578
702.084974	0.577562
702.420366	0.570238
702.755709	0.577160
703.091002	0.585519
703.426246	0.578455
703.761440	0.584819
704.096584	0.589192
704.431679	0.586347
704.766725	0.587922
705.101721	0.590039
705.436668	0.586725
705.771565	0.593196
706.106413	0.589762
706.441212	0.585623
706.775961	0.583266
707.110661	0.586523
707.445311	0.583615
707.779913	0.580500
708.114465	0.579084
708.448967	0.575826
708.783421	0.567659
709.117825	0.562144
709.452180	0.562716
709.786485	0.556258
710.120742	0.545945
710.454949	0.548283
710.789107	0.540228
711.123216	0.531306
711.457275	0.532711
711.791286	0.524186
712.125247	0.522820
712.459159	0.533866
712.793023	0.525913
713.126837	0.529659
713.460602	0.530382
713.794318	0.539714
714.127985	0.538411
714.461602	0.548479
714.795171	0.552166
715.128691	0.559916
715.462162	0.567567
715.795584	0.573093
716.128957	0.575332
716.462281	0.582672
716.795556	0.586288
717.128782	0.590809
717.461960	0.600561
717.795088	0.598524
718.128167	0.605392
718.461198	0.613895
718.794180	0.615164
719.127113	0.617333
719.459997	0.621720
719.792833	0.626852
720.125619	0.628666
720.458357	0.634459
720.791046	0.633230
721.123686	0.638073
721.456278	0.643662
721.788821	0.641115
722.121315	0.645398
722.453761	0.649518
722.786158	0.647533
723.118506	0.644617
723.450805	0.651682
723.783056	0.647760
724.115259	0.645127
724.447412	0.645213
724.779518	0.645938
725.111574	0.645888
725.443582	0.641252
725.775542	0.642595
726.107453	0.634500
726.439315	0.634487
726.771129	0.633806
727.102895	0.626712
727.434612	0.619005
727.766281	0.617750
728.097901	0.616495
728.429473	0.616192
728.760996	0.615278
729.092471	0.615409
729.423897	0.619281
729.755276	0.617856
730.086606	0.618004
730.417887	0.612415
730.749120	0.603073
731.080305	0.595224
731.411442	0.590254
731.742530	0.595411
732.073570	0.594428
732.404562	0.586381
732.735506	0.587817
733.066401	0.593256
733.397249	0.602160
733.728048	0.612918
734.058798	0.626384
734.389501	0.635893
734.720156	0.646306
735.050762	0.654031
735.381320	0.654927
735.711831	0.664735
736.042293	0.669365
736.372707	0.665220
736.703073	0.669978
737.033391	0.672523
737.363661	0.668627
737.693883	0.664663
738.024056	0.662894
738.354182	0.663352
738.684260	0.652295
739.014290	0.648998
739.344272	0.649575
739.674207	0.642903
740.004093	0.642400
740.333931	0.643140
740.663722	0.642584
740.993464	0.643462
741.323159	0.647532
741.652806	0.652371
741.982405	0.657296
742.311956	0.661891
742.641460	0.663678
742.970915	0.667931
743.300323	0.675436
743.629683	0.681281
743.958996	0.684139
744.288260	0.687500
744.617477	0.693887
744.946647	0.695078
745.275768	0.701048
745.604842	0.701039
745.933869	0.710901
746.262847	0.711121
746.591778	0.704776
746.920662	0.711177
747.249498	0.717407
747.578286	0.708045
747.907027	0.704391
748.235720	0.705415
748.564365	0.699726
748.892963	0.700030
749.221514	0.702582
749.550017	0.708080
749.878473	0.707378
750.206881	0.713768
750.535242	0.715504
750.863555	0.715094
751.191821	0.716209
751.520039	0.719872
751.848210	0.724029
752.176334	0.717151
752.504411	0.715988
752.832440	0.723995
753.160421	0.728643
753.488356	0.726818
753.816243	0.723591
754.144082	0.731930
754.471875	0.736641
754.799620	0.730780
755.127318	0.731872
755.454969	0.732188
755.782572	0.731729
756.110129	0.737172
756.437638	0.739546
756.765100	0.735244
757.092515	0.733568
757.419882	0.732626
757.747203	0.738645
758.074477	0.737779
758.401703	0.734696
758.728882	0.728653
759.056014	0.728795
759.383099	0.727886
759.710138	0.728438
760.037129	0.725175
760.364073	0.719287
760.690970	0.721465
761.017820	0.726539
761.344623	0.722795
761.671379	0.713143
761.998088	0.702612
762.324751	0.679533
762.651366	0.637630
762.977935	0.570870
763.304456	0.518471
763.630931	0.508546
763.957359	0.548069
764.283740	0.592591
764.610074	0.620145
764.936362	0.650234
765.262602	0.677520
765.588796	0.698995
765.914943	0.717107
766.241044	0.734128
766.567097	0.740658
766.893104	0.751477
767.219064	0.757231
767.544978	0.763865
767.870845	0.778011
768.196665	0.781467
768.522438	0.779596
768.848165	0.781441
769.173846	0.790350
769.499479	0.793600
769.825066	0.796931
770.150607	0.802263
770.476101	0.797587
770.801548	0.799043
771.126949	0.810700
771.452303	0.814063
771.777611	0.813012
772.102872	0.811812
772.428087	0.817957
772.753256	0.821480
773.078378	0.822449
773.403453	0.831399
773.728482	0.836652
774.053465	0.828924
774.378401	0.833790
774.703291	0.841857
775.028135	0.840948
775.352932	0.842431
775.677683	0.845778
776.002388	0.846071
776.327046	0.845674
776.651658	0.848306
776.976224	0.852129
777.300743	0.852267
777.625216	0.854610
777.949643	0.856657
778.274024	0.857578
778.598359	0.858245
778.922647	0.857315
779.246889	0.857877
779.571086	0.861497
779.895236	0.864007
780.219339	0.860991
780.543397	0.857658
780.867409	0.856791
781.191374	0.858452
781.515294	0.859975
781.839167	0.858277
782.162995	0.862533
782.486776	0.859951
782.810511	0.859465
783.134201	0.863637
783.457844	0.860890
783.781441	0.864024
784.104993	0.870672
784.428498	0.870498
784.751958	0.866641
785.075372	0.869183
785.398739	0.872136
785.722061	0.868599
786.045337	0.864181
786.368568	0.868509
786.691752	0.870922
787.014891	0.857135
787.337983	0.848720
787.661030	0.840866
787.984031	0.824081
788.306987	0.810830
788.629897	0.812428
788.952760	0.817656
789.275579	0.821066
789.598351	0.836770
789.921078	0.849160
790.243759	0.851385
790.566395	0.856704
790.888984	0.863312
791.211529	0.867596
791.534027	0.871788
791.856480	0.873631
792.178888	0.879529
792.501249	0.881655
792.823566	0.882403
793.145836	0.883103
793.468062	0.884227
793.790241	0.884539
794.112375	0.883710
794.434464	0.877570
794.756507	0.878104
795.078505	0.878207
795.400457	0.871482
795.722364	0.860125
796.044226	0.852954
796.366042	0.852372
796.687812	0.855701
797.009538	0.851651
797.331218	0.854849
797.652852	0.860353
797.974442	0.865193
798.295986	0.863466
798.617484	0.866714
798.938938	0.870829
799.260346	0.875059
799.581709	0.876773
799.903026	0.880490
800.224299	0.879690
800.545526	0.884247
800.866708	0.889139
801.187845	0.892297
801.508936	0.892478
801.829983	0.889747
802.150984	0.892199
802.471940	0.897115
802.792851	0.896022
803.113717	0.898507
803.434538	0.895708
803.755314	0.897870
804.076045	0.900391
804.396731	0.900076
804.717372	0.900325
805.037967	0.902107
805.358518	0.900107
805.679024	0.897345
805.999485	0.897180
806.319901	0.896518
806.640272	0.897094
806.960598	0.897157
807.280879	0.893744
807.601115	0.892930
807.921306	0.896129
808.241453	0.896169
808.561554	0.893228
808.881611	0.894319
809.201623	0.895375
809.521590	0.896122
809.841513	0.897096
810.161390	0.896148
810.481223	0.897032
810.801011	0.901727
811.120755	0.902848
811.440453	0.902092
811.760107	0.900258
812.079716	0.900984
812.399281	0.902837
812.718801	0.907348
813.038276	0.906306
813.357707	0.906641
813.677093	0.903702
813.996434	0.907203
814.315731	0.908073
814.634983	0.910028
814.954191	0.908767
815.273354	0.904865
815.592473	0.901774
815.911547	0.901614
816.230577	0.898981
816.549562	0.895372
816.868502	0.896710
817.187399	0.893276
817.506250	0.887769
817.825058	0.889937
818.143821	0.886344
818.462539	0.880949
818.781213	0.872818
819.099843	0.862814
819.418429	0.846410
819.736970	0.828693
820.055466	0.809889
820.373919	0.783341
820.692327	0.751545
821.010691	0.717029
821.329011	0.638347
821.647286	0.523616
821.965517	0.410025
822.283704	0.366766
822.601847	0.368017
822.919945	0.403844
823.237999	0.437458
823.556010	0.483777
823.873976	0.540702
824.191897	0.591240
824.509775	0.633129
824.827609	0.678326
825.145398	0.701572
825.463144	0.703914
825.780845	0.687460
826.098502	0.668733
826.416116	0.622633
826.733685	0.578170
827.051210	0.569609
827.368692	0.584799
827.686129	0.622123
828.003522	0.676035
828.320872	0.722551
828.638177	0.766618
828.955439	0.799467
829.272656	0.820967
829.589830	0.838828
829.906960	0.854256
830.224046	0.866634
830.541088	0.876980
830.858086	0.881725
831.175041	0.887541
831.491952	0.886552
831.808819	0.884485
832.125642	0.875220
832.442421	0.862650
832.759157	0.840328
833.075849	0.793760
833.392497	0.729904
833.709101	0.689509
834.025662	0.698830
834.342179	0.730188
834.658653	0.770467
834.975083	0.805631
835.291469	0.831164
835.607811	0.855031
835.924110	0.871219
836.240366	0.886453
836.556578	0.901351
836.872746	0.908590
837.188871	0.914466
837.504952	0.920508
837.820990	0.923611
838.136984	0.927367
838.452935	0.929841
838.768842	0.931465
839.084706	0.925350
839.400526	0.897937
839.716303	0.859536
840.032037	0.836607
840.347727	0.839839
840.663373	0.858743
840.978977	0.879491
841.294537	0.901564
841.610054	0.918952
841.925527	0.925429
842.240957	0.933523
842.556344	0.940135
842.871687	0.946623
843.186987	0.950094
843.502244	0.950349
843.817458	0.952266
844.132629	0.955190
844.447756	0.960515
844.762840	0.959797
845.077881	0.960132
845.392879	0.959986
845.707833	0.962884
846.022745	0.964497
846.337613	0.964907
846.652438	0.965856
846.967221	0.964949
847.281960	0.965007
847.596656	0.967542
847.911309	0.966346
848.225919	0.967963
848.540485	0.968673
848.855009	0.968602
849.169490	0.968498
849.483928	0.969429
849.798323	0.969302
850.112675	0.970110
850.426984	0.970365
850.741251	0.970902
851.055474	0.970467
851.369654	0.967294
851.683792	0.969645
851.997887	0.970378
852.311938	0.971164
852.625947	0.969570
852.939914	0.967909
853.253837	0.969185
853.567718	0.971006
853.881555	0.971239
854.195350	0.967717
854.509103	0.969863
854.822812	0.969660
855.136479	0.970870
855.450103	0.970196
855.763685	0.968390
856.077224	0.968667
856.390720	0.970620
856.704173	0.971262
857.017584	0.969587
857.330953	0.966589
857.644278	0.968327
857.957561	0.968105
858.270802	0.968643
858.584000	0.966936
858.897155	0.965950
859.210268	0.967747
859.523339	0.968389
859.836367	0.969756
860.149352	0.970492
860.462295	0.968519
860.775195	0.969791
861.088054	0.969263
861.400869	0.969837
861.713642	0.970328
862.026373	0.970770
862.339062	0.970593
862.651708	0.967945
862.964312	0.967698
863.276873	0.969986
863.589392	0.968151
863.901869	0.965961
864.214303	0.966492
864.526696	0.964295
864.839045	0.963837
865.151353	0.961115
865.463619	0.962637
865.775842	0.962165
866.088023	0.962122
866.400162	0.962573
866.712258	0.962332
867.024313	0.963026
867.336325	0.963842
867.648296	0.963743
867.960224	0.963106
868.272110	0.962239
868.583954	0.963757
868.895755	0.964000
869.207515	0.961396
869.519233	0.959333
869.830909	0.961391
870.142542	0.962468
870.454134	0.963317
870.765684	0.959713
871.077191	0.957734
871.388657	0.958923
871.700081	0.958133
872.011463	0.958413
872.322803	0.957310
872.634101	0.956493
872.945357	0.954709
873.256571	0.952017
873.567744	0.952590
873.878874	0.954012
874.189963	0.952626
874.501010	0.951575
874.812015	0.949984
875.122979	0.952217
875.433900	0.952763
875.744780	0.953791
876.055618	0.950561
876.366415	0.950154
876.677169	0.950892
876.987882	0.951151
877.298554	0.951302
877.609183	0.947530
877.919771	0.945946
878.230317	0.942448
878.540822	0.940734
878.851285	0.935161
879.161707	0.927248
879.472087	0.914679
879.782425	0.898609
880.092722	0.864987
880.402977	0.813170
880.713191	0.752233
881.023363	0.692538
881.333494	0.658499
881.643583	0.631309
881.953631	0.630923
882.263637	0.659263
882.573602	0.698255
882.883526	0.724672
883.193408	0.748018
883.503248	0.771527
883.813048	0.798255
884.122806	0.827861
884.432522	0.850475
884.742197	0.870037
885.051831	0.881985
885.361424	0.891107
885.670975	0.903176
885.980485	0.914255
886.289954	0.919166
886.599382	0.925567
886.908768	0.928820
887.218113	0.935046
887.527417	0.939305
887.836680	0.941643
888.145901	0.943682
888.455082	0.945959
888.764221	0.951059
889.073319	0.952248
889.382376	0.952973
889.691392	0.953525
890.000366	0.951519
890.309300	0.953372
890.618193	0.952917
890.927044	0.952163
891.235855	0.952197
891.544625	0.951781
891.853353	0.952177
892.162041	0.948828
892.470687	0.942791
892.779293	0.939078
893.087858	0.933956
893.396381	0.927270
893.704864	0.912693
894.013306	0.889403
894.321707	0.862389
894.630068	0.848278
894.938387	0.842735
895.246665	0.844112
895.554903	0.856965
895.863100	0.869141
896.171256	0.887478
896.479371	0.906165
896.787446	0.919548
897.095480	0.926596
897.403473	0.929113
897.711425	0.932942
898.019336	0.940103
898.327207	0.942478
898.635038	0.945756
898.942827	0.946285
899.250576	0.948293
899.558284	0.952666
899.865952	0.953797
900.173579	0.955199
900.481165	0.954810
900.788711	0.959794
901.096216	0.962341
901.403681	0.961955
901.711105	0.963507
902.018489	0.964229
902.325832	0.961740
902.633135	0.962326
902.940397	0.955503
903.247619	0.943865
903.554800	0.918258
903.861941	0.878927
904.169041	0.843636
904.476101	0.826029
904.783121	0.826599
905.090100	0.842576
905.397039	0.865186
905.703938	0.887227
906.010796	0.906185
906.317614	0.922415
906.624391	0.934599
906.931129	0.944303
907.237826	0.951556
907.544483	0.959343
907.851099	0.963166
908.157675	0.969396
908.464211	0.968956
908.770707	0.973326
909.077163	0.973505
909.383578	0.974355
909.689954	0.975452
909.996289	0.975419
910.302584	0.977374
910.608839	0.979906
910.915054	0.979172
911.221229	0.977954
911.527363	0.977774
911.833458	0.977389
912.139513	0.978004
912.445527	0.975553
912.751502	0.974274
913.057436	0.972778
913.363331	0.969943
913.669186	0.967182
913.975000	0.962082
914.280775	0.954959
914.586510	0.947829
914.892205	0.935769
915.197859	0.913820
915.503475	0.886599
915.809050	0.867660
916.114585	0.861559
916.420081	0.858741
916.725536	0.854699
917.030952	0.864055
917.336328	0.876824
917.641665	0.892302
917.946961	0.907076
918.252218	0.918921
918.557435	0.927816
918.862612	0.936125
919.167750	0.942596
919.472848	0.947339
919.777906	0.951977
920.082925	0.957988
920.387904	0.962612
920.692843	0.963870
920.997743	0.963651
921.302603	0.967266
921.607423	0.968967
921.912204	0.972244
922.216946	0.971782
922.521647	0.972577
922.826310	0.975414
923.130932	0.977195
923.435516	0.978710
923.740059	0.979809
924.044564	0.978409
924.349028	0.980946
924.653454	0.983991
924.957840	0.985586
925.262186	0.984958
925.566493	0.983982
925.870761	0.985427
926.174989	0.986688
926.479178	0.989114
926.783328	0.988843
927.087438	0.989383
927.391509	0.987714
927.695541	0.990351
927.999533	0.988576
928.303486	0.989233
928.607400	0.990325
928.911275	0.989404
929.215110	0.990562
929.518906	0.991868
929.822663	0.990172
930.126381	0.991397
930.430060	0.990069
930.733699	0.991019
931.037299	0.989834
931.340861	0.991470
931.644383	0.990449
931.947866	0.989198
932.251309	0.990682
932.554714	0.990398
932.858080	0.990945
933.161407	0.989436
933.464694	0.991551
933.767943	0.990820
934.071153	0.991065
934.374323	0.991410
934.677455	0.991459
934.980548	0.990485
935.283602	0.990737
935.586617	0.992020
935.889593	0.991299
936.192530	0.990913
936.495428	0.990813
936.798287	0.990992
937.101108	0.990846
937.403890	0.989014
937.706632	0.989713
938.009336	0.987456
938.312002	0.986258
938.614628	0.985109
938.917216	0.983029
939.219765	0.981511
939.522275	0.982431
939.824747	0.981803
940.127179	0.983888
940.429573	0.984127
940.731929	0.984695
941.034246	0.985960
941.336524	0.985590
941.638763	0.986520
941.940964	0.986398
942.243126	0.986286
942.545250	0.986657
942.847335	0.989450
943.149381	0.988382
943.451389	0.987852
943.753359	0.988971
944.055290	0.991144
944.357182	0.990334
944.659036	0.988576
944.960851	0.989760
945.262628	0.990002
945.564367	0.990113
945.866067	0.989875
946.167729	0.989435
946.469352	0.990493
946.770937	0.988601
947.072484	0.991067
947.373992	0.990285
947.675462	0.990508
947.976893	0.989904
948.278286	0.990431
948.579641	0.991779
948.880958	0.990145
949.182236	0.991435
949.483476	0.991407
949.784678	0.989681
950.085841	0.990572
950.386967	0.991283
950.688054	0.990956
950.989103	0.991648
951.290114	0.989529
951.591087	0.990364
951.892021	0.989234
952.192917	0.990057
952.493776	0.988027
952.794596	0.989037
953.095378	0.988929
953.396122	0.989148
953.696828	0.987410
953.997496	0.990362
954.298126	0.990469
954.598718	0.991530
954.899272	0.990511
955.199788	0.990168
955.500266	0.992784
955.800706	0.994151
956.101108	0.993568
956.401472	0.995018
956.701798	0.994159
957.002087	0.992641
957.302337	0.992903
957.602550	0.995011
957.902724	0.995396
958.202861	0.995439
958.502960	0.996297
958.803022	0.993672
959.103045	0.996060
959.403031	0.995270
959.702979	0.994803
960.002889	0.996258
960.302762	0.995815
960.602596	0.996736
960.902393	0.994742
961.202153	0.996811
961.501875	0.997191
961.801559	0.995392
962.101205	0.996586
962.400814	0.997249
962.700385	0.996997
962.999918	0.996252
963.299414	0.997281
963.598873	0.995055
963.898293	0.996754
964.197677	0.995902
964.497022	0.996254
964.796331	0.997614
965.095601	0.996924
965.394835	0.996974
965.694030	0.996888
965.993189	0.997857
966.292309	0.996113
966.591393	0.997984
966.890439	0.996513
967.189447	0.997714
967.488419	0.996788
967.787353	0.996280
968.086249	0.996282
968.385108	0.997531
968.683930	0.998031
968.982714	0.997544
969.281462	0.997184
969.580172	0.996418
969.878844	0.996402
970.177480	0.996540
970.476078	0.996775
970.774639	0.998096
971.073162	0.997014
971.371649	0.997466
971.670098	0.997387
971.968510	0.997691
972.266885	0.996051
972.565223	0.996676
972.863524	0.996040
973.161788	0.996133
973.460014	0.997731
973.758204	0.995722
974.056356	0.996858
974.354471	0.995369
974.652550	0.996205
974.950591	0.997246
975.248595	0.995797
975.546563	0.997368
975.844493	0.997565
976.142386	0.996582
976.440243	0.997871
976.738062	0.995836
977.035845	0.999267
977.333590	0.997018
977.631299	0.997608
977.928971	0.996523
978.226606	0.996473
978.524204	0.995585
978.821765	0.997504
979.119290	0.996639
979.416777	0.996230
979.714228	0.996816
980.011642	0.996267
980.309020	0.998006
980.606360	0.995418
980.903664	0.998745
981.200931	0.995873
981.498162	0.995107
981.795356	0.994476
982.092513	0.994445
982.389633	0.996016
982.686717	0.990108
982.983764	0.991978
983.280775	0.990939
983.577749	0.990846
983.874686	0.992258
984.171587	0.992552
984.468451	0.993159
984.765279	0.995554
985.062070	0.993902
985.358824	0.995117
985.655543	0.994620
985.952224	0.996876
986.248869	0.996570
986.545478	0.997079
986.842050	0.997759
987.138586	0.996476
987.435086	0.996866
987.731549	0.999334
988.027975	0.998294
988.324366	0.996980
988.620719	0.997835
988.917037	0.996617
989.213318	0.999179
989.509563	0.998614
989.805772	0.998098
990.101944	0.999219
990.398080	0.998194
990.694180	0.997986
990.990244	0.997329
991.286271	0.998180
991.582262	0.997938
991.878217	0.997936
992.174136	1.000038
992.470019	0.998503
992.765865	0.998253
993.061676	0.998057
993.357450	0.998108
993.653188	0.996288
993.948890	0.997994
994.244556	0.998230
994.540186	0.997133
994.835780	0.997803
995.131337	0.997641
995.426859	0.997034
995.722345	0.998512
996.017795	0.996297
996.313208	0.996665
996.608586	0.996291
996.903928	0.997747
997.199234	0.995428
997.494504	0.996828
997.789738	0.996194
998.084936	0.995621
998.380099	0.998480
998.675225	0.997100
998.970316	0.997982
999.265371	0.997686
999.560390	0.997964
999.855373	0.999784
1000.150320	0.997499
1000.445232	0.999866
1000.740108	0.998894
1001.034948	0.997158
1001.329752	1.000167
1001.624521	1.000091
1001.919254	0.999099
1002.213951	0.998013
1002.508613	0.997818
1002.803239	0.999577
1003.097829	0.999463
1003.392384	1.000310
1003.686903	0.998918
1003.981386	0.998106
1004.275834	0.999022
1004.570246	0.997846
1004.864623	0.999040
1005.158964	1.000350
1005.453270	0.998199
1005.747540	0.997218
1006.041775	0.999172
1006.335974	1.000598
1006.630138	0.999014
1006.924266	0.999408
1007.218359	1.001964
1007.512416	0.999612
1007.806438	0.999662
1008.100425	0.999693
1008.394376	0.999146
1008.688292	0.998951
1008.982172	1.000370
1009.276017	0.999120
1009.569827	0.999935
1009.863602	0.999477
1010.157341	1.000247
1010.451045	0.997783
1010.744714	0.998828
1011.038347	0.998853
1011.331945	0.998413
1011.625508	0.998495
1011.919036	0.998908
1012.212528	0.999607
1012.505986	0.999060
1012.799408	0.998588
1013.092795	0.999122
1013.386147	0.998659
1013.679464	0.999545
1013.972745	0.999010
1014.265992	0.997998
1014.559204	0.999071
1014.852380	0.999805
1015.145521	0.999753
1015.438628	0.998429
1015.731699	0.998796
1016.024736	0.998845
1016.317737	0.999418
1016.610703	0.999445
1016.903635	0.999834
1017.196531	0.999031
1017.489393	0.999170
1017.782219	0.999420
1018.075011	0.999446
1018.367768	0.999602
1018.660490	1.000199
1018.953177	1.000199
1019.245829	1.000199
