Dividing Wavelength (nm)	Counts (n)	Blue Motor Position (mm): 0.000000	Red Motor Position (mm): 12.500000	
326.493990	1.000315
326.888308	1.000315
327.282561	1.000315
327.676750	1.000558
328.070874	0.999000
328.464933	0.999899
328.858929	0.999245
329.252859	0.998952
329.646726	0.999452
330.040528	0.999812
330.434265	0.999546
330.827938	1.000697
331.221547	1.000172
331.615091	0.999904
332.008571	0.999808
332.401986	0.999979
332.795338	0.999654
333.188625	0.998079
333.581847	1.000475
333.975006	0.999100
334.368100	0.999072
334.761129	0.998820
335.154095	1.001344
335.546996	0.998107
335.939833	0.991196
336.332606	0.992784
336.725315	0.993445
337.117960	0.995142
337.510540	0.992979
337.903056	0.994525
338.295508	0.993539
338.687896	0.994093
339.080220	0.993634
339.472480	0.993466
339.864676	0.993178
340.256807	0.994950
340.648875	0.994340
341.040879	0.994273
341.432818	0.993165
341.824694	0.993790
342.216506	0.994058
342.608253	0.993095
342.999937	0.993935
343.391557	0.992158
343.783113	0.993037
344.174605	0.994008
344.566033	0.995012
344.957397	0.993498
345.348697	0.994113
345.739934	0.993526
346.131106	0.993109
346.522215	0.993178
346.913260	0.994060
347.304241	0.992227
347.695159	0.993012
348.086012	0.992965
348.476802	0.994284
348.867528	0.994375
349.258191	0.992306
349.648789	0.993561
350.039324	0.993039
350.429796	0.994794
350.820203	0.994477
351.210548	0.993635
351.600828	0.993165
351.991045	0.994601
352.381198	0.992379
352.771288	0.993781
353.161314	0.992746
353.551276	0.993898
353.941175	0.994196
354.331010	0.994204
354.720782	0.994107
355.110490	0.993261
355.500135	0.993202
355.889717	0.992595
356.279235	0.993310
356.668689	0.992872
357.058080	0.993586
357.447408	0.994282
357.836672	0.993586
358.225873	0.994133
358.615010	0.993098
359.004084	0.993589
359.393095	0.994271
359.782043	0.994076
360.170927	0.994058
360.559748	0.993797
360.948505	0.992564
361.337199	0.993395
361.725830	0.993660
362.114398	0.992422
362.502903	0.993642
362.891344	0.994718
363.279722	0.992823
363.668037	0.994091
364.056289	0.993553
364.444478	0.994568
364.832603	0.993679
365.220665	0.992235
365.608665	0.992978
365.996601	0.993652
366.384474	0.993150
366.772284	0.993743
367.160031	0.991927
367.547715	0.991507
367.935336	0.992156
368.322893	0.992989
368.710388	0.992182
369.097820	0.993386
369.485189	0.992163
369.872495	0.991996
370.259738	0.991156
370.646918	0.994274
371.034035	0.992791
371.421090	0.992882
371.808081	0.991606
372.195010	0.992554
372.581875	0.993136
372.968678	0.992515
373.355418	0.993232
373.742096	0.992255
374.128710	0.994560
374.515262	0.991866
374.901751	0.993219
375.288177	0.993697
375.674540	0.992523
376.060841	0.992146
376.447079	0.993096
376.833254	0.992609
377.219367	0.992452
377.605417	0.993314
377.991404	0.992388
378.377329	0.991954
378.763191	0.992216
379.148991	0.993260
379.534727	0.993122
379.920402	0.992801
380.306013	0.993045
380.691563	0.993551
381.077049	0.992605
381.462474	0.992455
381.847835	0.992643
382.233134	0.993262
382.618371	0.992875
383.003545	0.993087
383.388657	0.993153
383.773706	0.992268
384.158693	0.992801
384.543618	0.992574
384.928480	0.992564
385.313280	0.991375
385.698017	0.991099
386.082692	0.990857
386.467305	0.990444
386.851856	0.987859
387.236344	0.986729
387.620770	0.984893
388.005133	0.983255
388.389435	0.981502
388.773674	0.977238
389.157851	0.975241
389.541965	0.970456
389.926018	0.968784
390.310008	0.964614
390.693936	0.959113
391.077802	0.955173
391.461606	0.950084
391.845348	0.944303
392.229027	0.940147
392.612645	0.932734
392.996200	0.925847
393.379694	0.917460
393.763125	0.909846
394.146494	0.904250
394.529801	0.894452
394.913047	0.885718
395.296230	0.879972
395.679351	0.869310
396.062410	0.859769
396.445408	0.853821
396.828343	0.842876
397.211217	0.832838
397.594028	0.830897
397.976778	0.817707
398.359466	0.807500
398.742092	0.796376
399.124656	0.794110
399.507158	0.780135
399.889598	0.770457
400.271977	0.757355
400.654294	0.751357
401.036549	0.741562
401.418742	0.736450
401.800874	0.719255
402.182944	0.708788
402.564952	0.695241
402.946898	0.689789
403.328783	0.682369
403.710606	0.683345
404.092367	0.657150
404.474067	0.654786
404.855705	0.647585
405.237282	0.649535
405.618797	0.631684
406.000250	0.622735
406.381642	0.609317
406.762972	0.607321
407.144240	0.602284
407.525447	0.598228
407.906593	0.586544
408.287677	0.578480
408.668700	0.582349
409.049661	0.572571
409.430560	0.565153
409.811399	0.569970
410.192176	0.549913
410.572891	0.554289
410.953545	0.540510
411.334138	0.550331
411.714669	0.541458
412.095139	0.551602
412.475547	0.534434
412.855894	0.534701
413.236180	0.532560
413.616405	0.536374
413.996568	0.526439
414.376670	0.530977
414.756711	0.534721
415.136691	0.531461
415.516609	0.522511
415.896466	0.517480
416.276262	0.513618
416.655997	0.515365
417.035670	0.495782
417.415283	0.487746
417.794834	0.491962
418.174324	0.497365
418.553753	0.506450
418.933121	0.488266
419.312428	0.481637
419.691674	0.487963
420.070859	0.476592
420.449983	0.484137
420.829045	0.473472
421.208047	0.482344
421.586988	0.475634
421.965867	0.474288
422.344686	0.462739
422.723444	0.475918
423.102141	0.491971
423.480777	0.465304
423.859352	0.485669
424.237866	0.462622
424.616319	0.464075
424.994712	0.454468
425.373044	0.464381
425.751314	0.453093
426.129524	0.468996
426.507673	0.452720
426.885762	0.446578
427.263789	0.451549
427.641756	0.461849
428.019662	0.452111
428.397508	0.450420
428.775292	0.455526
429.153016	0.447027
429.530679	0.453882
429.908282	0.446818
430.285824	0.456687
430.663305	0.434794
431.040726	0.455839
431.418086	0.456787
431.795385	0.447745
432.172624	0.446422
432.549802	0.447887
432.926920	0.446652
433.303977	0.445661
433.680974	0.442917
434.057910	0.441352
434.434786	0.440621
434.811601	0.443567
435.188355	0.425353
435.565050	0.434991
435.941683	0.436202
436.318257	0.420930
436.694770	0.421314
437.071222	0.419464
437.447614	0.423868
437.823946	0.430146
438.200218	0.419600
438.576429	0.429227
438.952580	0.422637
439.328670	0.419464
439.704700	0.426074
440.080670	0.427345
440.456580	0.408206
440.832429	0.416084
441.208218	0.426513
441.583947	0.416060
441.959616	0.415746
442.335224	0.420610
442.710773	0.411977
443.086261	0.409467
443.461689	0.423894
443.837057	0.413196
444.212365	0.403372
444.587612	0.410538
444.962800	0.400248
445.337927	0.401675
445.712995	0.428385
446.088002	0.390470
446.462949	0.400629
446.837837	0.405210
447.212664	0.394134
447.587431	0.385440
447.962139	0.356490
448.336786	0.315968
448.711374	0.325961
449.085901	0.369751
449.460369	0.374356
449.834776	0.377414
450.209124	0.356884
450.583412	0.349710
450.957640	0.343126
451.331808	0.354271
451.705917	0.377578
452.079965	0.382220
452.453954	0.370296
452.827883	0.376792
453.201752	0.371946
453.575562	0.383689
453.949311	0.371899
454.323001	0.377898
454.696632	0.373679
455.070202	0.366193
455.443713	0.358592
455.817164	0.353364
456.190556	0.348908
456.563888	0.345562
456.937160	0.343230
457.310373	0.360523
457.683526	0.359481
458.056619	0.365066
458.429653	0.365809
458.802628	0.369107
459.175542	0.363205
459.548398	0.345925
459.921194	0.338283
460.293930	0.338393
460.666607	0.316201
461.039224	0.304774
461.411782	0.300198
461.784280	0.299420
462.156719	0.303539
462.529099	0.308119
462.901419	0.323810
463.273680	0.328814
463.645882	0.327713
464.018024	0.333741
464.390106	0.326514
464.762130	0.311616
465.134094	0.294278
465.505999	0.263683
465.877845	0.234301
466.249631	0.221347
466.621358	0.228942
466.993026	0.242608
467.364634	0.248730
467.736184	0.257856
468.107674	0.266183
468.479105	0.265174
468.850477	0.271861
469.221790	0.278508
469.593043	0.288928
469.964238	0.293892
470.335373	0.292868
470.706449	0.291436
471.077467	0.292087
471.448425	0.254328
471.819324	0.230059
472.190164	0.229095
472.560945	0.257896
472.931667	0.280326
473.302330	0.284328
473.672934	0.296004
474.043479	0.284311
474.413965	0.286355
474.784393	0.289890
475.154761	0.284557
475.525070	0.281472
475.895321	0.287455
476.265513	0.281584
476.635645	0.277156
477.005719	0.276996
477.375734	0.273704
477.745691	0.266800
478.115588	0.263435
478.485427	0.256866
478.855207	0.243849
479.224928	0.226205
479.594591	0.214365
479.964194	0.217634
480.333739	0.218949
480.703226	0.220205
481.072653	0.219195
481.442022	0.214745
481.811333	0.210926
482.180584	0.214649
482.549777	0.219898
482.918912	0.223407
483.287988	0.223021
483.657005	0.222234
484.025964	0.229120
484.394864	0.226343
484.763706	0.226954
485.132489	0.232024
485.501213	0.232668
485.869879	0.231034
486.238487	0.234408
486.607036	0.231804
486.975527	0.236661
487.343959	0.232617
487.712333	0.231433
488.080648	0.233156
488.448905	0.232152
488.817104	0.233634
489.185244	0.228079
489.553326	0.224882
489.921350	0.214866
490.289315	0.197444
490.657222	0.192383
491.025070	0.193737
491.392861	0.195895
491.760593	0.201262
492.128267	0.206871
492.495883	0.212314
492.863440	0.218814
493.230939	0.225027
493.598380	0.226275
493.965763	0.228517
494.333088	0.231152
494.700354	0.232206
495.067563	0.231242
495.434713	0.234775
495.801805	0.232470
496.168839	0.233926
496.535815	0.235543
496.902733	0.235182
497.269593	0.236972
497.636395	0.234832
498.003139	0.235272
498.369825	0.237923
498.736453	0.234485
499.103023	0.235825
499.469535	0.235165
499.835989	0.235550
500.202385	0.236414
500.568723	0.239661
500.935003	0.234745
501.301226	0.238992
501.667390	0.233316
502.033497	0.231459
502.399546	0.234499
502.765537	0.236431
503.131470	0.234616
503.497345	0.231057
503.863163	0.239801
504.228923	0.232867
504.594625	0.231584
504.960269	0.236827
505.325856	0.232203
505.691385	0.236166
506.056856	0.233168
506.422270	0.232645
506.787625	0.234945
507.152924	0.232394
507.518164	0.232863
507.883347	0.234656
508.248472	0.236088
508.613540	0.231450
508.978550	0.233856
509.343503	0.234101
509.708398	0.231974
510.073236	0.229634
510.438016	0.229595
510.802738	0.230563
511.167403	0.229750
511.532010	0.231621
511.896561	0.226735
512.261053	0.225909
512.625488	0.227708
512.989866	0.228255
513.354186	0.228347
513.718449	0.230186
514.082655	0.226300
514.446803	0.228830
514.810894	0.226478
515.174927	0.229010
515.538904	0.228650
515.902822	0.225465
516.266684	0.227715
516.630488	0.228885
516.994235	0.227711
517.357925	0.226499
517.721558	0.224711
518.085133	0.224366
518.448651	0.224632
518.812112	0.226653
519.175516	0.226204
519.538863	0.224020
519.902152	0.225602
520.265385	0.222317
520.628560	0.224090
520.991678	0.224696
521.354739	0.223054
521.717743	0.224781
522.080690	0.225240
522.443580	0.222343
522.806413	0.223585
523.169189	0.222726
523.531908	0.221693
523.894569	0.225209
524.257174	0.225135
524.619722	0.222813
524.982213	0.223897
525.344647	0.222778
525.707025	0.223804
526.069345	0.221670
526.431608	0.223425
526.793815	0.221558
527.155964	0.225804
527.518057	0.224606
527.880093	0.225545
528.242072	0.224240
528.603995	0.226081
528.965860	0.227763
529.327669	0.226497
529.689421	0.227514
530.051117	0.228213
530.412755	0.225974
530.774337	0.228399
531.135862	0.228929
531.497331	0.227901
531.858743	0.230914
532.220098	0.227558
532.581396	0.229955
532.942638	0.230699
533.303824	0.231652
533.664953	0.231242
534.026025	0.233259
534.387040	0.230903
534.747999	0.230903
535.108902	0.229678
535.469748	0.234651
535.830537	0.232849
536.191270	0.233046
536.551947	0.232583
536.912567	0.232706
537.273131	0.234585
537.633638	0.234658
537.994089	0.234990
538.354483	0.236049
538.714821	0.233094
539.075103	0.232694
539.435328	0.233677
539.795497	0.237184
540.155609	0.233774
540.515665	0.232031
540.875665	0.237524
541.235609	0.236039
541.595496	0.236080
541.955328	0.232824
542.315102	0.235443
542.674821	0.236520
543.034483	0.236442
543.394090	0.236375
543.753640	0.237982
544.113134	0.233364
544.472571	0.236472
544.831953	0.233429
545.191278	0.237290
545.550548	0.236894
545.909761	0.233561
546.268918	0.234333
546.628019	0.232854
546.987064	0.235613
547.346053	0.237245
547.704986	0.235072
548.063863	0.235725
548.422684	0.235838
548.781449	0.237337
549.140158	0.235260
549.498811	0.237796
549.857408	0.241130
550.215949	0.235997
550.574434	0.238759
550.932864	0.236839
551.291237	0.235324
551.649555	0.237083
552.007817	0.236728
552.366022	0.237312
552.724173	0.237802
553.082267	0.238183
553.440305	0.235062
553.798288	0.239339
554.156215	0.235625
554.514086	0.236540
554.871902	0.239615
555.229661	0.238848
555.587365	0.239524
555.945014	0.242013
556.302606	0.238875
556.660143	0.241303
557.017625	0.238013
557.375050	0.240339
557.732421	0.237186
558.089735	0.239163
558.446994	0.239237
558.804197	0.238549
559.161345	0.238328
559.518437	0.241664
559.875474	0.239400
560.232455	0.239011
560.589381	0.240295
560.946251	0.240231
561.303065	0.237848
561.659825	0.239629
562.016528	0.240889
562.373177	0.243352
562.729770	0.240994
563.086307	0.242967
563.442789	0.240831
563.799216	0.243936
564.155587	0.242334
564.511904	0.243614
564.868164	0.243826
565.224370	0.243590
565.580520	0.245369
565.936615	0.245253
566.292654	0.248132
566.648638	0.244976
567.004567	0.246092
567.360441	0.246702
567.716260	0.248922
568.072023	0.246410
568.427732	0.247262
568.783385	0.249607
569.138982	0.247954
569.494525	0.247293
569.850013	0.250298
570.205445	0.248534
570.560823	0.251136
570.916145	0.253018
571.271412	0.251405
571.626625	0.252857
571.981782	0.253273
572.336884	0.254095
572.691931	0.254049
573.046923	0.255163
573.401860	0.256271
573.756743	0.257942
574.111570	0.256778
574.466342	0.257295
574.821059	0.256894
575.175722	0.259330
575.530330	0.259067
575.884882	0.259386
576.239380	0.261643
576.593823	0.262195
576.948211	0.261498
577.302544	0.264501
577.656823	0.264100
578.011047	0.264053
578.365216	0.264903
578.719330	0.267244
579.073389	0.266874
579.427394	0.267976
579.781344	0.268828
580.135239	0.270499
580.489080	0.269778
580.842866	0.272895
581.196597	0.272792
581.550273	0.271429
581.903895	0.272426
582.257463	0.270718
582.610975	0.273933
582.964434	0.273431
583.317837	0.275840
583.671186	0.276024
584.024481	0.276240
584.377721	0.278754
584.730906	0.279330
585.084037	0.278684
585.437113	0.280520
585.790135	0.280039
586.143103	0.282582
586.496016	0.283963
586.848874	0.281627
587.201679	0.282340
587.554428	0.285219
587.907124	0.283989
588.259765	0.285033
588.612352	0.285748
588.964884	0.289179
589.317362	0.288921
589.669786	0.288757
590.022155	0.287479
590.374470	0.286476
590.726731	0.288794
591.078937	0.293441
591.431090	0.289475
591.783188	0.294066
592.135232	0.294467
592.487222	0.294134
592.839157	0.292857
593.191038	0.295145
593.542866	0.296694
593.894639	0.300259
594.246358	0.298306
594.598022	0.297686
594.949633	0.301598
595.301190	0.302199
595.652692	0.301500
596.004141	0.297966
596.355535	0.305062
596.706876	0.305785
597.058162	0.308545
597.409395	0.305566
597.760573	0.303252
598.111698	0.306488
598.462768	0.306640
598.813785	0.308139
599.164748	0.309761
599.515657	0.309786
599.866511	0.313399
600.217312	0.308616
600.568060	0.313466
600.918753	0.310175
601.269392	0.311019
601.619978	0.314256
601.970510	0.312346
602.320988	0.312291
602.671412	0.309990
603.021783	0.312828
603.372100	0.313970
603.722363	0.313529
604.072572	0.314601
604.422728	0.313811
604.772830	0.316515
605.122878	0.316093
605.472872	0.316553
605.822813	0.314833
606.172701	0.317603
606.522534	0.314744
606.872314	0.315048
607.222041	0.315609
607.571714	0.314008
607.921333	0.315133
608.270899	0.315269
608.620411	0.311577
608.969870	0.315988
609.319276	0.316133
609.668627	0.315666
610.017926	0.314195
610.367171	0.312832
610.716362	0.313474
611.065500	0.313973
611.414585	0.312261
611.763616	0.312882
612.112594	0.313771
612.461518	0.312789
612.810389	0.310778
613.159207	0.312838
613.507971	0.314709
613.856682	0.310497
614.205340	0.312174
614.553945	0.308729
614.902496	0.312338
615.250994	0.310813
615.599439	0.311491
615.947830	0.310775
616.296169	0.312195
616.644454	0.311309
616.992686	0.311575
617.340864	0.309074
617.688990	0.312730
618.037063	0.309633
618.385082	0.311360
618.733048	0.308513
619.080961	0.310377
619.428821	0.310244
619.776628	0.309548
620.124382	0.311998
620.472083	0.312013
620.819731	0.311318
621.167326	0.314963
621.514868	0.314546
621.862357	0.318953
622.209793	0.318816
622.557176	0.320453
622.904506	0.322300
623.251783	0.324518
623.599007	0.326503
623.946179	0.326164
624.293297	0.328222
624.640363	0.331946
624.987376	0.332472
625.334336	0.335091
625.681243	0.337545
626.028097	0.338064
626.374899	0.339099
626.721647	0.339381
627.068343	0.342192
627.414987	0.343560
627.761577	0.345574
628.108115	0.344040
628.454600	0.349079
628.801032	0.346187
629.147412	0.348407
629.493739	0.348638
629.840014	0.352290
630.186236	0.349380
630.532405	0.355338
630.878521	0.352381
631.224585	0.354430
631.570597	0.357916
631.916556	0.356377
632.262462	0.356648
632.608316	0.359088
632.954117	0.359425
633.299866	0.360388
633.645562	0.361004
633.991206	0.365122
634.336797	0.368309
634.682336	0.370292
635.027823	0.372121
635.373257	0.372679
635.718639	0.376061
636.063968	0.375357
636.409245	0.381329
636.754470	0.381826
637.099642	0.383944
637.444762	0.387401
637.789829	0.386806
638.134845	0.389783
638.479808	0.391130
638.824719	0.390943
639.169577	0.394500
639.514383	0.393250
639.859137	0.398202
640.203839	0.397682
640.548489	0.398191
640.893086	0.399476
641.237632	0.401099
641.582125	0.399532
641.926566	0.401210
642.270955	0.401235
642.615292	0.402376
642.959576	0.400936
643.303809	0.401657
643.647990	0.401130
643.992118	0.401670
644.336195	0.405401
644.680219	0.403672
645.024192	0.404446
645.368112	0.397264
645.711981	0.396334
646.055797	0.392216
646.399562	0.394441
646.743274	0.386329
647.086935	0.383608
647.430544	0.384206
647.774101	0.382716
648.117606	0.382313
648.461059	0.383159
648.804460	0.385422
649.147810	0.390366
649.491108	0.392283
649.834354	0.393821
650.177548	0.399073
650.520690	0.404802
650.863781	0.405620
651.206820	0.405206
651.549807	0.410163
651.892742	0.413239
652.235626	0.412896
652.578458	0.413771
652.921238	0.420026
653.263967	0.418069
653.606644	0.422067
653.949269	0.421989
654.291843	0.425473
654.634365	0.422620
654.976836	0.425653
655.319255	0.425548
655.661622	0.427821
656.003938	0.427449
656.346203	0.430411
656.688416	0.428335
657.030577	0.431366
657.372687	0.433729
657.714746	0.434579
658.056753	0.431882
658.398708	0.435193
658.740612	0.436507
659.082465	0.432381
659.424266	0.433052
659.766016	0.432716
660.107715	0.434859
660.449362	0.433968
660.790958	0.434473
661.132503	0.435406
661.473996	0.432696
661.815438	0.433884
662.156829	0.433645
662.498168	0.435351
662.839456	0.436098
663.180693	0.434192
663.521879	0.433605
663.863013	0.434612
664.204097	0.433672
664.545129	0.430364
664.886110	0.430468
665.227040	0.427602
665.567918	0.430487
665.908746	0.428262
666.249522	0.427881
666.590248	0.429229
666.930922	0.427437
667.271545	0.426210
667.612118	0.426467
667.952639	0.427901
668.293109	0.426645
668.633528	0.429807
668.973896	0.429194
669.314213	0.429628
669.654480	0.431543
669.994695	0.431699
670.334859	0.432292
670.674973	0.432719
671.015035	0.432275
671.355047	0.433046
671.695008	0.433968
672.034918	0.435615
672.374777	0.434998
672.714585	0.436242
673.054342	0.436081
673.394049	0.436202
673.733705	0.433843
674.073310	0.434824
674.412864	0.438353
674.752368	0.438540
675.091820	0.438757
675.431223	0.443334
675.770574	0.443245
676.109875	0.446169
676.449125	0.446216
676.788324	0.448608
677.127473	0.454187
677.466571	0.453419
677.805619	0.455264
678.144616	0.456628
678.483562	0.457901
678.822458	0.460209
679.161303	0.461470
679.500098	0.462146
679.838842	0.463644
680.177535	0.463441
680.516179	0.461943
680.854771	0.460730
681.193314	0.453804
681.531805	0.445334
681.870247	0.433873
682.208638	0.425849
682.546978	0.425360
682.885268	0.426976
683.223508	0.433959
683.561697	0.437327
683.899836	0.439528
684.237925	0.443257
684.575963	0.445534
684.913951	0.448961
685.251889	0.444836
685.589776	0.446791
685.927614	0.448649
686.265401	0.443140
686.603137	0.445204
686.940824	0.438535
687.278460	0.436889
687.616046	0.436244
687.953582	0.431410
688.291068	0.432877
688.628504	0.428202
688.965889	0.430241
689.303224	0.434764
689.640510	0.438254
689.977745	0.444118
690.314930	0.452416
690.652065	0.456608
690.989150	0.464447
691.326185	0.471002
691.663170	0.474861
692.000105	0.482447
692.336990	0.489569
692.673825	0.492017
693.010610	0.498721
693.347345	0.504255
693.684030	0.505353
694.020665	0.510412
694.357251	0.519461
694.693786	0.518912
695.030272	0.523310
695.366707	0.526858
695.703093	0.529829
696.039429	0.528520
696.375716	0.529143
696.711952	0.532284
697.048139	0.534088
697.384276	0.536270
697.720363	0.534845
698.056400	0.533653
698.392388	0.539241
698.728326	0.541851
699.064214	0.545137
699.400053	0.545038
699.735842	0.549157
700.071581	0.551911
700.407270	0.555108
700.742910	0.557687
701.078501	0.564724
701.414042	0.564308
701.749533	0.567750
702.084974	0.576688
702.420366	0.568077
702.755709	0.576658
703.091002	0.583673
703.426246	0.577572
703.761440	0.582761
704.096584	0.588635
704.431679	0.585616
704.766725	0.587434
705.101721	0.589101
705.436668	0.584768
705.771565	0.591986
706.106413	0.588832
706.441212	0.583826
706.775961	0.582683
707.110661	0.586108
707.445311	0.581729
707.779913	0.579441
708.114465	0.577355
708.448967	0.574940
708.783421	0.565882
709.117825	0.560654
709.452180	0.561189
709.786485	0.555022
710.120742	0.544685
710.454949	0.546586
710.789107	0.538832
711.123216	0.529748
711.457275	0.531672
711.791286	0.522332
712.125247	0.521562
712.459159	0.532351
712.793023	0.524699
713.126837	0.528827
713.460602	0.529548
713.794318	0.538276
714.127985	0.537220
714.461602	0.547285
714.795171	0.550786
715.128691	0.558394
715.462162	0.566227
715.795584	0.571405
716.128957	0.574959
716.462281	0.580488
716.795556	0.584577
717.128782	0.589450
717.461960	0.599047
717.795088	0.597052
718.128167	0.604224
718.461198	0.612858
718.794180	0.613723
719.127113	0.615858
719.459997	0.619394
719.792833	0.626570
720.125619	0.627746
720.458357	0.632761
720.791046	0.632970
721.123686	0.635762
721.456278	0.643121
721.788821	0.639609
722.121315	0.644342
722.453761	0.648408
722.786158	0.646279
723.118506	0.643343
723.450805	0.649506
723.783056	0.647130
724.115259	0.644663
724.447412	0.644132
724.779518	0.644410
725.111574	0.644418
725.443582	0.639563
725.775542	0.641515
726.107453	0.633561
726.439315	0.632978
726.771129	0.631579
727.102895	0.625565
727.434612	0.618169
727.766281	0.615842
728.097901	0.616344
728.429473	0.614926
728.760996	0.613687
729.092471	0.613548
729.423897	0.617316
729.755276	0.616431
730.086606	0.616868
730.417887	0.610533
730.749120	0.602156
731.080305	0.592493
731.411442	0.589145
731.742530	0.593515
732.073570	0.592666
732.404562	0.585565
732.735506	0.586232
733.066401	0.591292
733.397249	0.600419
733.728048	0.612145
734.058798	0.624387
734.389501	0.634363
734.720156	0.644827
735.050762	0.652784
735.381320	0.653544
735.711831	0.663060
736.042293	0.668903
736.372707	0.663599
736.703073	0.668189
737.033391	0.670211
737.363661	0.667159
737.693883	0.662359
738.024056	0.662296
738.354182	0.661767
738.684260	0.651610
739.014290	0.647470
739.344272	0.648585
739.674207	0.641365
740.004093	0.640681
740.333931	0.641643
740.663722	0.641599
740.993464	0.641821
741.323159	0.645630
741.652806	0.650486
741.982405	0.656349
742.311956	0.660053
742.641460	0.661986
742.970915	0.666111
743.300323	0.673899
743.629683	0.679678
743.958996	0.682118
744.288260	0.685471
744.617477	0.692371
744.946647	0.694428
745.275768	0.698703
745.604842	0.698937
745.933869	0.709123
746.262847	0.709246
746.591778	0.703236
746.920662	0.709348
747.249498	0.715921
747.578286	0.707431
747.907027	0.702756
748.235720	0.704019
748.564365	0.699057
748.892963	0.699517
749.221514	0.701208
749.550017	0.706533
749.878473	0.706050
750.206881	0.712874
750.535242	0.713725
750.863555	0.714214
751.191821	0.715286
751.520039	0.718754
751.848210	0.722833
752.176334	0.715143
752.504411	0.714689
752.832440	0.723290
753.160421	0.726334
753.488356	0.725003
753.816243	0.722726
754.144082	0.730919
754.471875	0.734283
754.799620	0.729318
755.127318	0.731260
755.454969	0.731169
755.782572	0.729975
756.110129	0.735840
756.437638	0.737543
756.765100	0.734758
757.092515	0.733214
757.419882	0.730990
757.747203	0.736900
758.074477	0.735698
758.401703	0.732663
758.728882	0.728048
759.056014	0.727284
759.383099	0.725455
759.710138	0.727052
760.037129	0.723972
760.364073	0.716656
760.690970	0.719929
761.017820	0.726124
761.344623	0.721328
761.671379	0.712041
761.998088	0.699955
762.324751	0.677893
762.651366	0.635536
762.977935	0.568538
763.304456	0.516186
763.630931	0.507437
763.957359	0.546128
764.283740	0.590333
764.610074	0.617738
764.936362	0.649049
765.262602	0.675568
765.588796	0.697895
765.914943	0.714862
766.241044	0.732673
766.567097	0.739126
766.893104	0.750415
767.219064	0.755697
767.544978	0.762897
767.870845	0.775322
768.196665	0.780197
768.522438	0.777715
768.848165	0.779098
769.173846	0.787443
769.499479	0.791745
769.825066	0.796466
770.150607	0.802362
770.476101	0.796304
770.801548	0.796541
771.126949	0.807774
771.452303	0.812183
771.777611	0.812502
772.102872	0.811799
772.428087	0.817307
772.753256	0.819922
773.078378	0.821987
773.403453	0.830730
773.728482	0.835485
774.053465	0.828478
774.378401	0.832857
774.703291	0.839799
775.028135	0.839849
775.352932	0.842296
775.677683	0.845408
776.002388	0.844456
776.327046	0.844147
776.651658	0.848564
776.976224	0.850658
777.300743	0.852509
777.625216	0.853928
777.949643	0.854942
778.274024	0.855587
778.598359	0.856559
778.922647	0.856016
779.246889	0.857145
779.571086	0.860080
779.895236	0.862722
780.219339	0.859941
780.543397	0.856179
780.867409	0.855423
781.191374	0.857789
781.515294	0.858372
781.839167	0.858095
782.162995	0.860956
782.486776	0.859171
782.810511	0.858664
783.134201	0.862636
783.457844	0.860897
783.781441	0.863385
784.104993	0.868124
784.428498	0.869961
784.751958	0.865379
785.075372	0.867926
785.398739	0.870899
785.722061	0.867548
786.045337	0.862625
786.368568	0.868602
786.691752	0.870784
787.014891	0.855578
787.337983	0.847565
787.661030	0.839381
787.984031	0.822057
788.306987	0.808815
788.629897	0.811010
788.952760	0.815149
789.275579	0.819973
789.598351	0.834759
789.921078	0.848038
790.243759	0.850048
790.566395	0.855740
790.888984	0.862918
791.211529	0.868682
791.534027	0.870921
791.856480	0.873781
792.178888	0.877702
792.501249	0.880793
792.823566	0.881475
793.145836	0.881121
793.468062	0.883689
793.790241	0.884136
794.112375	0.880740
794.434464	0.877597
794.756507	0.875692
795.078505	0.876002
795.400457	0.870190
795.722364	0.859405
796.044226	0.851949
796.366042	0.850777
796.687812	0.853569
797.009538	0.850956
797.331218	0.853332
797.652852	0.857841
797.974442	0.862749
798.295986	0.863065
798.617484	0.864359
798.938938	0.870219
799.260346	0.874456
799.581709	0.877070
799.903026	0.878885
800.224299	0.880301
800.545526	0.883254
800.866708	0.887658
801.187845	0.890544
801.508936	0.891014
801.829983	0.887906
802.150984	0.891550
802.471940	0.896408
802.792851	0.896090
803.113717	0.897029
803.434538	0.893946
803.755314	0.896634
804.076045	0.899281
804.396731	0.899255
804.717372	0.899057
805.037967	0.900453
805.358518	0.898642
805.679024	0.896182
805.999485	0.895636
806.319901	0.896677
806.640272	0.896385
806.960598	0.895466
807.280879	0.892209
807.601115	0.891723
807.921306	0.894870
808.241453	0.896042
808.561554	0.893441
808.881611	0.893282
809.201623	0.895212
809.521590	0.895102
809.841513	0.896932
810.161390	0.894915
810.481223	0.897015
810.801011	0.899539
811.120755	0.901213
811.440453	0.901427
811.760107	0.898860
812.079716	0.899152
812.399281	0.902655
812.718801	0.905270
813.038276	0.905902
813.357707	0.905643
813.677093	0.902840
813.996434	0.906301
814.315731	0.907956
814.634983	0.908600
814.954191	0.907108
815.273354	0.904145
815.592473	0.900086
815.911547	0.899636
816.230577	0.897816
816.549562	0.894508
816.868502	0.896049
817.187399	0.892767
817.506250	0.886454
817.825058	0.889111
818.143821	0.884997
818.462539	0.879398
818.781213	0.872134
819.099843	0.860644
819.418429	0.845415
819.736970	0.827238
820.055466	0.807867
820.373919	0.782161
820.692327	0.748628
821.010691	0.713267
821.329011	0.634649
821.647286	0.519382
821.965517	0.404808
822.283704	0.361722
822.601847	0.362834
822.919945	0.398664
823.237999	0.432757
823.556010	0.480887
823.873976	0.536161
824.191897	0.587594
824.509775	0.629770
824.827609	0.676120
825.145398	0.698311
825.463144	0.701677
825.780845	0.684374
826.098502	0.666081
826.416116	0.619551
826.733685	0.575212
827.051210	0.565965
827.368692	0.581088
827.686129	0.619211
828.003522	0.672509
828.320872	0.719754
828.638177	0.764377
828.955439	0.797023
829.272656	0.819563
829.589830	0.837800
829.906960	0.853306
830.224046	0.864381
830.541088	0.874914
830.858086	0.879951
831.175041	0.886490
831.491952	0.884386
831.808819	0.881713
832.125642	0.875878
832.442421	0.860187
832.759157	0.837955
833.075849	0.791732
833.392497	0.727373
833.709101	0.686394
834.025662	0.695798
834.342179	0.728412
834.658653	0.767685
834.975083	0.803486
835.291469	0.830065
835.607811	0.852598
835.924110	0.868877
836.240366	0.886125
836.556578	0.899126
836.872746	0.907369
837.188871	0.912993
837.504952	0.919221
837.820990	0.922837
838.136984	0.926189
838.452935	0.929016
838.768842	0.929933
839.084706	0.924263
839.400526	0.897659
839.716303	0.857902
840.032037	0.834218
840.347727	0.838160
840.663373	0.855819
840.978977	0.877805
841.294537	0.901370
841.610054	0.917184
841.925527	0.926107
842.240957	0.931558
842.556344	0.938858
842.871687	0.945187
843.186987	0.949030
843.502244	0.948747
843.817458	0.950717
844.132629	0.954070
844.447756	0.959410
844.762840	0.959926
845.077881	0.959597
845.392879	0.959706
845.707833	0.961976
846.022745	0.963907
846.337613	0.963926
846.652438	0.965391
846.967221	0.964867
847.281960	0.963299
847.596656	0.966949
847.911309	0.964478
848.225919	0.967388
848.540485	0.968121
848.855009	0.968564
849.169490	0.968633
849.483928	0.967717
849.798323	0.968794
850.112675	0.968817
850.426984	0.968058
850.741251	0.968847
851.055474	0.970563
851.369654	0.967245
851.683792	0.969929
851.997887	0.969841
852.311938	0.969822
852.625947	0.968870
852.939914	0.967781
853.253837	0.968898
853.567718	0.970069
853.881555	0.970077
854.195350	0.967188
854.509103	0.969613
854.822812	0.969580
855.136479	0.969650
855.450103	0.969358
855.763685	0.967688
856.077224	0.967666
856.390720	0.969860
856.704173	0.970623
857.017584	0.968111
857.330953	0.966072
857.644278	0.967482
857.957561	0.968038
858.270802	0.967613
858.584000	0.967862
858.897155	0.965829
859.210268	0.967428
859.523339	0.967780
859.836367	0.969210
860.149352	0.971012
860.462295	0.967169
860.775195	0.969660
861.088054	0.968517
861.400869	0.970035
861.713642	0.968575
862.026373	0.969479
862.339062	0.969581
862.651708	0.967620
862.964312	0.967150
863.276873	0.968677
863.589392	0.968000
863.901869	0.965233
864.214303	0.964104
864.526696	0.961934
864.839045	0.962659
865.151353	0.961968
865.463619	0.961705
865.775842	0.961788
866.088023	0.961238
866.400162	0.960557
866.712258	0.961535
867.024313	0.961884
867.336325	0.962215
867.648296	0.963178
867.960224	0.961531
868.272110	0.961032
868.583954	0.962529
868.895755	0.962588
869.207515	0.960512
869.519233	0.957898
869.830909	0.960256
870.142542	0.961623
870.454134	0.961021
870.765684	0.959325
871.077191	0.957420
871.388657	0.957754
871.700081	0.956845
872.011463	0.957993
872.322803	0.957197
872.634101	0.955597
872.945357	0.954226
873.256571	0.952955
873.567744	0.951525
873.878874	0.952438
874.189963	0.950721
874.501010	0.949645
874.812015	0.947487
875.122979	0.950874
875.433900	0.952437
875.744780	0.952381
876.055618	0.949704
876.366415	0.948587
876.677169	0.949075
876.987882	0.951393
877.298554	0.949297
877.609183	0.947307
877.919771	0.943375
878.230317	0.941565
878.540822	0.938678
878.851285	0.934584
879.161707	0.925358
879.472087	0.913602
879.782425	0.897280
880.092722	0.862330
880.402977	0.808669
880.713191	0.747136
881.023363	0.687182
881.333494	0.652646
881.643583	0.624880
881.953631	0.624561
882.263637	0.653236
882.573602	0.693146
882.883526	0.719495
883.193408	0.743243
883.503248	0.766342
883.813048	0.794281
884.122806	0.824015
884.432522	0.847889
884.742197	0.867865
885.051831	0.878906
885.361424	0.888932
885.670975	0.901252
885.980485	0.911809
886.289954	0.917288
886.599382	0.923134
886.908768	0.926816
887.218113	0.932833
887.527417	0.937143
887.836680	0.940911
888.145901	0.941716
888.455082	0.945565
888.764221	0.949052
889.073319	0.950999
889.382376	0.951400
889.691392	0.952271
890.000366	0.952380
890.309300	0.953295
890.618193	0.951412
890.927044	0.950460
891.235855	0.949811
891.544625	0.950474
891.853353	0.950815
892.162041	0.947561
892.470687	0.941316
892.779293	0.937264
893.087858	0.931488
893.396381	0.924194
893.704864	0.910648
894.013306	0.886535
894.321707	0.860414
894.630068	0.844591
894.938387	0.840922
895.246665	0.841458
895.554903	0.853480
895.863100	0.867219
896.171256	0.884775
896.479371	0.903967
896.787446	0.917926
897.095480	0.923182
897.403473	0.927810
897.711425	0.931553
898.019336	0.938667
898.327207	0.941250
898.635038	0.943518
898.942827	0.943067
899.250576	0.946375
899.558284	0.951154
899.865952	0.952406
900.173579	0.954828
900.481165	0.954125
900.788711	0.958246
901.096216	0.961329
901.403681	0.960093
901.711105	0.961437
902.018489	0.961368
902.325832	0.960771
902.633135	0.960378
902.940397	0.954586
903.247619	0.942341
903.554800	0.916092
903.861941	0.877116
904.169041	0.839663
904.476101	0.821667
904.783121	0.821991
905.090100	0.839132
905.397039	0.861243
905.703938	0.882709
906.010796	0.904510
906.317614	0.920988
906.624391	0.931763
906.931129	0.942356
907.237826	0.950070
907.544483	0.957949
907.851099	0.961351
908.157675	0.966609
908.464211	0.969095
908.770707	0.972069
909.077163	0.973089
909.383578	0.974238
909.689954	0.974310
909.996289	0.975555
910.302584	0.977720
910.608839	0.978708
910.915054	0.978188
911.221229	0.977919
911.527363	0.976943
911.833458	0.977238
912.139513	0.975806
912.445527	0.974025
912.751502	0.973435
913.057436	0.970651
913.363331	0.968693
913.669186	0.965045
913.975000	0.959868
914.280775	0.953975
914.586510	0.946831
914.892205	0.933324
915.197859	0.911866
915.503475	0.883535
915.809050	0.862772
916.114585	0.857465
916.420081	0.853502
916.725536	0.851740
917.030952	0.860011
917.336328	0.873467
917.641665	0.889640
917.946961	0.903846
918.252218	0.916411
918.557435	0.925390
918.862612	0.933654
919.167750	0.939987
919.472848	0.946609
919.777906	0.950841
920.082925	0.956655
920.387904	0.961220
920.692843	0.962032
920.997743	0.962099
921.302603	0.966307
921.607423	0.968018
921.912204	0.970460
922.216946	0.971688
922.521647	0.972113
922.826310	0.973344
923.130932	0.976230
923.435516	0.977389
923.740059	0.978517
924.044564	0.977449
924.349028	0.979842
924.653454	0.982908
924.957840	0.983555
925.262186	0.983118
925.566493	0.983917
925.870761	0.983141
926.174989	0.985625
926.479178	0.986924
926.783328	0.988031
927.087438	0.988982
927.391509	0.986630
927.695541	0.990118
927.999533	0.990053
928.303486	0.988827
928.607400	0.990559
928.911275	0.988887
929.215110	0.989621
929.518906	0.990709
929.822663	0.989382
930.126381	0.990562
930.430060	0.990382
930.733699	0.990428
931.037299	0.989381
931.340861	0.990406
931.644383	0.988777
931.947866	0.988932
932.251309	0.990118
932.554714	0.989922
932.858080	0.989046
933.161407	0.989643
933.464694	0.990978
933.767943	0.989329
934.071153	0.990184
934.374323	0.991743
934.677455	0.990312
934.980548	0.991133
935.283602	0.990374
935.586617	0.990631
935.889593	0.990189
936.192530	0.989535
936.495428	0.990446
936.798287	0.990670
937.101108	0.989070
937.403890	0.987906
937.706632	0.987486
938.009336	0.985872
938.312002	0.985466
938.614628	0.984110
938.917216	0.982793
939.219765	0.980460
939.522275	0.982561
939.824747	0.981395
940.127179	0.982833
940.429573	0.984739
940.731929	0.982609
941.034246	0.984079
941.336524	0.984662
941.638763	0.986059
941.940964	0.985210
942.243126	0.984539
942.545250	0.985936
942.847335	0.988101
943.149381	0.986856
943.451389	0.987958
943.753359	0.986551
944.055290	0.989860
944.357182	0.988888
944.659036	0.987315
944.960851	0.988171
945.262628	0.988820
945.564367	0.989863
945.866067	0.989852
946.167729	0.989195
946.469352	0.988761
946.770937	0.988931
947.072484	0.989791
947.373992	0.990177
947.675462	0.989824
947.976893	0.989588
948.278286	0.988948
948.579641	0.990655
948.880958	0.990310
949.182236	0.989717
949.483476	0.991470
949.784678	0.989250
950.085841	0.991640
950.386967	0.988822
950.688054	0.990130
950.989103	0.990166
951.290114	0.988134
951.591087	0.988789
951.892021	0.989522
952.192917	0.987731
952.493776	0.987954
952.794596	0.986679
953.095378	0.986480
953.396122	0.987077
953.696828	0.986909
953.997496	0.989688
954.298126	0.989237
954.598718	0.990888
954.899272	0.988919
955.199788	0.990311
955.500266	0.991200
955.800706	0.992888
956.101108	0.993544
956.401472	0.992665
956.701798	0.992623
957.002087	0.992193
957.302337	0.993773
957.602550	0.994736
957.902724	0.994628
958.202861	0.993993
958.502960	0.994659
958.803022	0.993135
959.103045	0.995730
959.403031	0.995561
959.702979	0.994580
960.002889	0.995987
960.302762	0.993874
960.602596	0.995930
960.902393	0.994553
961.202153	0.995968
961.501875	0.996142
961.801559	0.996114
962.101205	0.994802
962.400814	0.995650
962.700385	0.995943
962.999918	0.995705
963.299414	0.996196
963.598873	0.995191
963.898293	0.996503
964.197677	0.995890
964.497022	0.996493
964.796331	0.997609
965.095601	0.996058
965.394835	0.995936
965.694030	0.994642
965.993189	0.996387
966.292309	0.997096
966.591393	0.996981
966.890439	0.996851
967.189447	0.996055
967.488419	0.997344
967.787353	0.996846
968.086249	0.996777
968.385108	0.996542
968.683930	0.997650
968.982714	0.996810
969.281462	0.996749
969.580172	0.996291
969.878844	0.996167
970.177480	0.996404
970.476078	0.997577
970.774639	0.997474
971.073162	0.997504
971.371649	0.995850
971.670098	0.995682
971.968510	0.996467
972.266885	0.995870
972.565223	0.996157
972.863524	0.995344
973.161788	0.996708
973.460014	0.997942
973.758204	0.995472
974.056356	0.995769
974.354471	0.994810
974.652550	0.996721
974.950591	0.995507
975.248595	0.995408
975.546563	0.996487
975.844493	0.996584
976.142386	0.996551
976.440243	0.997665
976.738062	0.997100
977.035845	0.998075
977.333590	0.996098
977.631299	0.997160
977.928971	0.996445
978.226606	0.997285
978.524204	0.996203
978.821765	0.997106
979.119290	0.996050
979.416777	0.995623
979.714228	0.996587
980.011642	0.995093
980.309020	0.995647
980.606360	0.996926
980.903664	0.998347
981.200931	0.996537
981.498162	0.993979
981.795356	0.993942
982.092513	0.994246
982.389633	0.993827
982.686717	0.990565
982.983764	0.991135
983.280775	0.989303
983.577749	0.989880
983.874686	0.991829
984.171587	0.991684
984.468451	0.993804
984.765279	0.994836
985.062070	0.994437
985.358824	0.994634
985.655543	0.994386
985.952224	0.996688
986.248869	0.996763
986.545478	0.996514
986.842050	0.998304
987.138586	0.995864
987.435086	0.997714
987.731549	0.998090
988.027975	0.997596
988.324366	0.996895
988.620719	0.997600
988.917037	0.996369
989.213318	0.997470
989.509563	0.998473
989.805772	0.999277
990.101944	0.998511
990.398080	0.997202
990.694180	0.998119
990.990244	0.996568
991.286271	0.997863
991.582262	0.998282
991.878217	0.996761
992.174136	0.999215
992.470019	0.997677
992.765865	0.998579
993.061676	0.997018
993.357450	0.998010
993.653188	0.996890
993.948890	0.998014
994.244556	0.998039
994.540186	0.997143
994.835780	0.996826
995.131337	0.997301
995.426859	0.996787
995.722345	0.997105
996.017795	0.995128
996.313208	0.995963
996.608586	0.996105
996.903928	0.995336
997.199234	0.996604
997.494504	0.996255
997.789738	0.995479
998.084936	0.995702
998.380099	0.997831
998.675225	0.997381
998.970316	0.998222
999.265371	0.997879
999.560390	0.997457
999.855373	0.997304
1000.150320	0.997251
1000.445232	0.997251
1000.740108	0.997478
1001.034948	0.998960
1001.329752	0.998905
1001.624521	0.998806
1001.919254	0.998584
1002.213951	0.997994
1002.508613	0.997067
1002.803239	0.999966
1003.097829	0.999904
1003.392384	0.998919
1003.686903	0.996850
1003.981386	0.997771
1004.275834	0.998972
1004.570246	0.997629
1004.864623	0.998943
1005.158964	0.999910
1005.453270	0.998702
1005.747540	0.996990
1006.041775	0.998071
1006.335974	0.999276
1006.630138	0.998990
1006.924266	0.999150
1007.218359	0.999584
1007.512416	0.999678
1007.806438	0.999595
1008.100425	0.998842
1008.394376	0.998982
1008.688292	0.998515
1008.982172	0.999532
1009.276017	0.999076
1009.569827	0.998080
1009.863602	0.999122
1010.157341	0.999350
1010.451045	0.998602
1010.744714	0.999094
1011.038347	0.998444
1011.331945	0.999013
1011.625508	0.996605
1011.919036	0.999078
1012.212528	0.999179
1012.505986	0.997759
1012.799408	0.998364
1013.092795	0.998928
1013.386147	0.998861
1013.679464	0.998290
1013.972745	0.997410
1014.265992	0.997274
1014.559204	0.998427
1014.852380	0.999964
1015.145521	0.998316
1015.438628	0.998865
1015.731699	0.998816
1016.024736	0.997539
1016.317737	0.999376
1016.610703	0.998953
1016.903635	1.000098
1017.196531	0.997543
1017.489393	1.000472
1017.782219	0.998261
1018.075011	0.997591
1018.367768	0.999240
1018.660490	0.999475
1018.953177	0.999475
1019.245829	0.999475
