Dividing Wavelength (nm)	Counts (n)	Blue Motor Position (mm): 0.000000	Red Motor Position (mm): 32.000000	
326.493990	1.001049
326.888308	1.001049
327.282561	1.001049
327.676750	0.999729
328.070874	0.999663
328.464933	0.998912
328.858929	0.998730
329.252859	0.999106
329.646726	0.999615
330.040528	0.999449
330.434265	0.999823
330.827938	1.000179
331.221547	1.000657
331.615091	1.000479
332.008571	1.000005
332.401986	0.998989
332.795338	0.999654
333.188625	0.998167
333.581847	1.000129
333.975006	0.999012
334.368100	0.998781
334.761129	0.999014
335.154095	1.000255
335.546996	0.998530
335.939833	0.995146
336.332606	0.995180
336.725315	0.996569
337.117960	0.996953
337.510540	0.994812
337.903056	0.995932
338.295508	0.995398
338.687896	0.996253
339.080220	0.996012
339.472480	0.994856
339.864676	0.996101
340.256807	0.996078
340.648875	0.996413
341.040879	0.995807
341.432818	0.996088
341.824694	0.995110
342.216506	0.997376
342.608253	0.995975
342.999937	0.995952
343.391557	0.995564
343.783113	0.995120
344.174605	0.997613
344.566033	0.997088
344.957397	0.995103
345.348697	0.996072
345.739934	0.994799
346.131106	0.996284
346.522215	0.994459
346.913260	0.996119
347.304241	0.995048
347.695159	0.995979
348.086012	0.994840
348.476802	0.996004
348.867528	0.995551
349.258191	0.994947
349.648789	0.996899
350.039324	0.995375
350.429796	0.996669
350.820203	0.996131
351.210548	0.995526
351.600828	0.995724
351.991045	0.995142
352.381198	0.995570
352.771288	0.995973
353.161314	0.995907
353.551276	0.996198
353.941175	0.996026
354.331010	0.996100
354.720782	0.996433
355.110490	0.995681
355.500135	0.996422
355.889717	0.996000
356.279235	0.995890
356.668689	0.995308
357.058080	0.994962
357.447408	0.996809
357.836672	0.995545
358.225873	0.996937
358.615010	0.996546
359.004084	0.997239
359.393095	0.995015
359.782043	0.995835
360.170927	0.996537
360.559748	0.997028
360.948505	0.995542
361.337199	0.996619
361.725830	0.995884
362.114398	0.996699
362.502903	0.996337
362.891344	0.997422
363.279722	0.995320
363.668037	0.996315
364.056289	0.995438
364.444478	0.996473
364.832603	0.996004
365.220665	0.994040
365.608665	0.995789
365.996601	0.996211
366.384474	0.996046
366.772284	0.995662
367.160031	0.994367
367.547715	0.995211
367.935336	0.995404
368.322893	0.994979
368.710388	0.994942
369.097820	0.995939
369.485189	0.994945
369.872495	0.995722
370.259738	0.996370
370.646918	0.996941
371.034035	0.997179
371.421090	0.995204
371.808081	0.995330
372.195010	0.995954
372.581875	0.996712
372.968678	0.995981
373.355418	0.996780
373.742096	0.994898
374.128710	0.996363
374.515262	0.996135
374.901751	0.996180
375.288177	0.995712
375.674540	0.996967
376.060841	0.996310
376.447079	0.996864
376.833254	0.996562
377.219367	0.996558
377.605417	0.997240
377.991404	0.996484
378.377329	0.996423
378.763191	0.997625
379.148991	0.997206
379.534727	0.997365
379.920402	0.997009
380.306013	0.997220
380.691563	0.996905
381.077049	0.997095
381.462474	0.997695
381.847835	0.996992
382.233134	0.996118
382.618371	0.997676
383.003545	0.997787
383.388657	0.997800
383.773706	0.997399
384.158693	0.997640
384.543618	0.996745
384.928480	0.998550
385.313280	0.997348
385.698017	0.997250
386.082692	0.998267
386.467305	0.998349
386.851856	0.997377
387.236344	0.997186
387.620770	0.996628
388.005133	0.997336
388.389435	0.998388
388.773674	0.996905
389.157851	0.998568
389.541965	0.997705
389.926018	0.997149
390.310008	0.998816
390.693936	0.997229
391.077802	0.997871
391.461606	0.997786
391.845348	0.997428
392.229027	0.998979
392.612645	0.997817
392.996200	0.999367
393.379694	0.997137
393.763125	0.998642
394.146494	0.998658
394.529801	0.998167
394.913047	0.998020
395.296230	0.997866
395.679351	0.998580
396.062410	0.998094
396.445408	0.998623
396.828343	0.997607
397.211217	0.997909
397.594028	0.998563
397.976778	0.998636
398.359466	0.997715
398.742092	0.997644
399.124656	0.997983
399.507158	0.997754
399.889598	0.997856
400.271977	0.998947
400.654294	0.999590
401.036549	0.998203
401.418742	0.998517
401.800874	0.997910
402.182944	0.998803
402.564952	0.997258
402.946898	0.998945
403.328783	0.997888
403.710606	0.998281
404.092367	0.998901
404.474067	0.998574
404.855705	0.998682
405.237282	0.999034
405.618797	0.998042
406.000250	0.996612
406.381642	0.997777
406.762972	0.998768
407.144240	0.999176
407.525447	0.998750
407.906593	0.998906
408.287677	0.998668
408.668700	0.999208
409.049661	0.998011
409.430560	0.998698
409.811399	0.998321
410.192176	0.998252
410.572891	0.998321
410.953545	0.998768
411.334138	0.997425
411.714669	0.999714
412.095139	0.997966
412.475547	0.999703
412.855894	0.998743
413.236180	0.998553
413.616405	0.998799
413.996568	0.999497
414.376670	0.998634
414.756711	0.998153
415.136691	0.999048
415.516609	0.998541
415.896466	0.998378
416.276262	0.997802
416.655997	0.999472
417.035670	0.998748
417.415283	0.999080
417.794834	0.998516
418.174324	0.998680
418.553753	0.999496
418.933121	0.999052
419.312428	0.999241
419.691674	0.997919
420.070859	0.998762
420.449983	0.998845
420.829045	0.998912
421.208047	0.998777
421.586988	0.999955
421.965867	0.998818
422.344686	0.999916
422.723444	0.998862
423.102141	0.999746
423.480777	0.999124
423.859352	0.998226
424.237866	0.998585
424.616319	0.998842
424.994712	0.998792
425.373044	0.999400
425.751314	0.999271
426.129524	0.998825
426.507673	0.999548
426.885762	0.999436
427.263789	0.999109
427.641756	0.998844
428.019662	0.999651
428.397508	0.998654
428.775292	0.998222
429.153016	0.998872
429.530679	0.998693
429.908282	0.999908
430.285824	0.998263
430.663305	0.998473
431.040726	0.998962
431.418086	1.000391
431.795385	0.999355
432.172624	0.998431
432.549802	0.998929
432.926920	0.999629
433.303977	0.998220
433.680974	0.999563
434.057910	0.999105
434.434786	1.000022
434.811601	0.998161
435.188355	0.999014
435.565050	0.999359
435.941683	0.998085
436.318257	1.000015
436.694770	0.998502
437.071222	0.999524
437.447614	0.999856
437.823946	0.999456
438.200218	0.999672
438.576429	0.999074
438.952580	0.999787
439.328670	0.998801
439.704700	0.999459
440.080670	0.998814
440.456580	0.999074
440.832429	0.999640
441.208218	0.999609
441.583947	0.998798
441.959616	0.999093
442.335224	0.998753
442.710773	1.000481
443.086261	0.998877
443.461689	0.999230
443.837057	0.998646
444.212365	0.999576
444.587612	0.998523
444.962800	0.998375
445.337927	0.999738
445.712995	0.998600
446.088002	0.999465
446.462949	0.999474
446.837837	0.998952
447.212664	0.999618
447.587431	0.999330
447.962139	0.998458
448.336786	0.999374
448.711374	0.999172
449.085901	0.998241
449.460369	0.998883
449.834776	0.999131
450.209124	1.000078
450.583412	0.998865
450.957640	0.999237
451.331808	0.999475
451.705917	0.998832
452.079965	0.998437
452.453954	0.999085
452.827883	0.998969
453.201752	0.999336
453.575562	0.999743
453.949311	0.999075
454.323001	0.998666
454.696632	0.999448
455.070202	0.999167
455.443713	0.998624
455.817164	0.999338
456.190556	0.998834
456.563888	0.998398
456.937160	0.999005
457.310373	0.998710
457.683526	0.998281
458.056619	0.998883
458.429653	0.999541
458.802628	0.998832
459.175542	0.998997
459.548398	0.999118
459.921194	0.999142
460.293930	0.998726
460.666607	0.998116
461.039224	0.998458
461.411782	0.999087
461.784280	0.998776
462.156719	0.999535
462.529099	0.999618
462.901419	0.998838
463.273680	0.998770
463.645882	0.998897
464.018024	0.999189
464.390106	0.999505
464.762130	0.999366
465.134094	0.999102
465.505999	0.999586
465.877845	0.999041
466.249631	1.000089
466.621358	0.999289
466.993026	1.000071
467.364634	0.999511
467.736184	0.999354
468.107674	0.998859
468.479105	0.999154
468.850477	0.998871
469.221790	0.998914
469.593043	0.999087
469.964238	0.999322
470.335373	0.998954
470.706449	0.998462
471.077467	0.999372
471.448425	0.999067
471.819324	0.999591
472.190164	0.998295
472.560945	0.997993
472.931667	0.998338
473.302330	0.998152
473.672934	0.998731
474.043479	0.997926
474.413965	0.998101
474.784393	0.997325
475.154761	0.997547
475.525070	0.996539
475.895321	0.997614
476.265513	0.997113
476.635645	0.996736
477.005719	0.997354
477.375734	0.995780
477.745691	0.996346
478.115588	0.996337
478.485427	0.995333
478.855207	0.994775
479.224928	0.994109
479.594591	0.993859
479.964194	0.993575
480.333739	0.993256
480.703226	0.992461
481.072653	0.992554
481.442022	0.991746
481.811333	0.989742
482.180584	0.990504
482.549777	0.988518
482.918912	0.988708
483.287988	0.987699
483.657005	0.986633
484.025964	0.986571
484.394864	0.985713
484.763706	0.984337
485.132489	0.983483
485.501213	0.982419
485.869879	0.981269
486.238487	0.979711
486.607036	0.979622
486.975527	0.977165
487.343959	0.975980
487.712333	0.974730
488.080648	0.972842
488.448905	0.971308
488.817104	0.970186
489.185244	0.969091
489.553326	0.965869
489.921350	0.963143
490.289315	0.957725
490.657222	0.956718
491.025070	0.954015
491.392861	0.952508
491.760593	0.951375
492.128267	0.950848
492.495883	0.948489
492.863440	0.947094
493.230939	0.945235
493.598380	0.942190
493.965763	0.938400
494.333088	0.937658
494.700354	0.933907
495.067563	0.931473
495.434713	0.928510
495.801805	0.925608
496.168839	0.922712
496.535815	0.917716
496.902733	0.915779
497.269593	0.912013
497.636395	0.908911
498.003139	0.903700
498.369825	0.901663
498.736453	0.896556
499.103023	0.892605
499.469535	0.889190
499.835989	0.884530
500.202385	0.880720
500.568723	0.876099
500.935003	0.872325
501.301226	0.866286
501.667390	0.862228
502.033497	0.856682
502.399546	0.853385
502.765537	0.848021
503.131470	0.843071
503.497345	0.837183
503.863163	0.834938
504.228923	0.827314
504.594625	0.822621
504.960269	0.818907
505.325856	0.812468
505.691385	0.807031
506.056856	0.801073
506.422270	0.795168
506.787625	0.791279
507.152924	0.784243
507.518164	0.778741
507.883347	0.773677
508.248472	0.767891
508.613540	0.761006
508.978550	0.755277
509.343503	0.749833
509.708398	0.743869
510.073236	0.736415
510.438016	0.730428
510.802738	0.724098
511.167403	0.717873
511.532010	0.711414
511.896561	0.704754
512.261053	0.698684
512.625488	0.692124
512.989866	0.685379
513.354186	0.679772
513.718449	0.673851
514.082655	0.666692
514.446803	0.660640
514.810894	0.653753
515.174927	0.647352
515.538904	0.642040
515.902822	0.633424
516.266684	0.628963
516.630488	0.622956
516.994235	0.616483
517.357925	0.608604
517.721558	0.601896
518.085133	0.594663
518.448651	0.589786
518.812112	0.584571
519.175516	0.577202
519.538863	0.570382
519.902152	0.565319
520.265385	0.556384
520.628560	0.552480
520.991678	0.545256
521.354739	0.539971
521.717743	0.534417
522.080690	0.529408
522.443580	0.520090
522.806413	0.514906
523.169189	0.508915
523.531908	0.502087
523.894569	0.498771
524.257174	0.492605
524.619722	0.485100
524.982213	0.481822
525.344647	0.474411
525.707025	0.470031
526.069345	0.463634
526.431608	0.458417
526.793815	0.452752
527.155964	0.450186
527.518057	0.444659
527.880093	0.439550
528.242072	0.434196
528.603995	0.429939
528.965860	0.426406
529.327669	0.420692
529.689421	0.417066
530.051117	0.413220
530.412755	0.405943
530.774337	0.404330
531.135862	0.399031
531.497331	0.395220
531.858743	0.392309
532.220098	0.385610
532.581396	0.383640
532.942638	0.380187
533.303824	0.376985
533.664953	0.372580
534.026025	0.369878
534.387040	0.363923
534.747999	0.360670
535.108902	0.355907
535.469748	0.356702
535.830537	0.351364
536.191270	0.348294
536.551947	0.344433
536.912567	0.341420
537.273131	0.339779
537.633638	0.336140
537.994089	0.333848
538.354483	0.331665
538.714821	0.326823
539.075103	0.323005
539.435328	0.320749
539.795497	0.322303
540.155609	0.315701
540.515665	0.311793
540.875665	0.314226
541.235609	0.310398
541.595496	0.307995
541.955328	0.302085
542.315102	0.302683
542.674821	0.301309
543.034483	0.299051
543.394090	0.296745
543.753640	0.296468
544.113134	0.289324
544.472571	0.291006
544.831953	0.285945
545.191278	0.288332
545.550548	0.285980
545.909761	0.281123
546.268918	0.280195
546.628019	0.276876
546.987064	0.277894
547.346053	0.278280
547.704986	0.274595
548.063863	0.273633
548.422684	0.272587
548.781449	0.272718
549.140158	0.269322
549.498811	0.270847
549.857408	0.273024
550.215949	0.266341
550.574434	0.268372
550.932864	0.265540
551.291237	0.263174
551.649555	0.263375
552.007817	0.262359
552.366022	0.262209
552.724173	0.261794
553.082267	0.261400
553.440305	0.257417
553.798288	0.261022
554.156215	0.256909
554.514086	0.256992
554.871902	0.259345
555.229661	0.258005
555.587365	0.257929
555.945014	0.259808
556.302606	0.256191
556.660143	0.258211
557.017625	0.254325
557.375050	0.256029
557.732421	0.252703
558.089735	0.254229
558.446994	0.253820
558.804197	0.252604
559.161345	0.252318
559.518437	0.255396
559.875474	0.252693
560.232455	0.252042
560.589381	0.252852
560.946251	0.252545
561.303065	0.250110
561.659825	0.250968
562.016528	0.252409
562.373177	0.255024
562.729770	0.251762
563.086307	0.253842
563.442789	0.251604
563.799216	0.254056
564.155587	0.252633
564.511904	0.253608
564.868164	0.253779
565.224370	0.253176
565.580520	0.254813
565.936615	0.254658
566.292654	0.257240
566.648638	0.254422
567.004567	0.254964
567.360441	0.255595
567.716260	0.257398
568.072023	0.255200
568.427732	0.256061
568.783385	0.258052
569.138982	0.256013
569.494525	0.255702
569.850013	0.258329
570.205445	0.256728
570.560823	0.259335
570.916145	0.261336
571.271412	0.259212
571.626625	0.260523
571.981782	0.260967
572.336884	0.262090
572.691931	0.261641
573.046923	0.262788
573.401860	0.263752
573.756743	0.265452
574.111570	0.264093
574.466342	0.264608
574.821059	0.263664
575.175722	0.266664
575.530330	0.266416
575.884882	0.266398
576.239380	0.268259
576.593823	0.269182
576.948211	0.268316
577.302544	0.271487
577.656823	0.271172
578.011047	0.271455
578.365216	0.271624
578.719330	0.273696
579.073389	0.273480
579.427394	0.275089
579.781344	0.275497
580.135239	0.277044
580.489080	0.276584
580.842866	0.279528
581.196597	0.279316
581.550273	0.278071
581.903895	0.279042
582.257463	0.277173
582.610975	0.280464
582.964434	0.279903
583.317837	0.282404
583.671186	0.282751
584.024481	0.282620
584.377721	0.285025
584.730906	0.285349
585.084037	0.284511
585.437113	0.286549
585.790135	0.286026
586.143103	0.288905
586.496016	0.290231
586.848874	0.287726
587.201679	0.288011
587.554428	0.291630
587.907124	0.290369
588.259765	0.291286
588.612352	0.291306
588.964884	0.295243
589.317362	0.294782
589.669786	0.294856
590.022155	0.293414
590.374470	0.292542
590.726731	0.294825
591.078937	0.299489
591.431090	0.295694
591.783188	0.299944
592.135232	0.300284
592.487222	0.300216
592.839157	0.298795
593.191038	0.300764
593.542866	0.302931
593.894639	0.306094
594.246358	0.303884
594.598022	0.303737
594.949633	0.307215
595.301190	0.308117
595.652692	0.307060
596.004141	0.303090
596.355535	0.311354
596.706876	0.311437
597.058162	0.314186
597.409395	0.311218
597.760573	0.309153
598.111698	0.312549
598.462768	0.312768
598.813785	0.314204
599.164748	0.315468
599.515657	0.315569
599.866511	0.318888
600.217312	0.314360
600.568060	0.319635
600.918753	0.316199
601.269392	0.316709
601.619978	0.319909
601.970510	0.317765
602.320988	0.318031
602.671412	0.315951
603.021783	0.318263
603.372100	0.319538
603.722363	0.319149
604.072572	0.319969
604.422728	0.319909
604.772830	0.321877
605.122878	0.321235
605.472872	0.322183
605.822813	0.320157
606.172701	0.322747
606.522534	0.320404
606.872314	0.320677
607.222041	0.321557
607.571714	0.319606
607.921333	0.321099
608.270899	0.320493
608.620411	0.317224
608.969870	0.321165
609.319276	0.321149
609.668627	0.321252
610.017926	0.319602
610.367171	0.318209
610.716362	0.319215
611.065500	0.318922
611.414585	0.317753
611.763616	0.318473
612.112594	0.319042
612.461518	0.318394
612.810389	0.315987
613.159207	0.318426
613.507971	0.320393
613.856682	0.315816
614.205340	0.317508
614.553945	0.314538
614.902496	0.318256
615.250994	0.316278
615.599439	0.317073
615.947830	0.316543
616.296169	0.317661
616.644454	0.317087
616.992686	0.316768
617.340864	0.314739
617.688990	0.317948
618.037063	0.315127
618.385082	0.316786
618.733048	0.313665
619.080961	0.316279
619.428821	0.315271
619.776628	0.315217
620.124382	0.317137
620.472083	0.317370
620.819731	0.317000
621.167326	0.320563
621.514868	0.320242
621.862357	0.324343
622.209793	0.323972
622.557176	0.326504
622.904506	0.327831
623.251783	0.329727
623.599007	0.332088
623.946179	0.331959
624.293297	0.333546
624.640363	0.337418
624.987376	0.338134
625.334336	0.340486
625.681243	0.342792
626.028097	0.343049
626.374899	0.344539
626.721647	0.344655
627.068343	0.347989
627.414987	0.348876
627.761577	0.350808
628.108115	0.349077
628.454600	0.354253
628.801032	0.351516
629.147412	0.353894
629.493739	0.354479
629.840014	0.357318
630.186236	0.354991
630.532405	0.360101
630.878521	0.357954
631.224585	0.359857
631.570597	0.363666
631.916556	0.361839
632.262462	0.362282
632.608316	0.364058
632.954117	0.364963
633.299866	0.365865
633.645562	0.366514
633.991206	0.370839
634.336797	0.373321
634.682336	0.375744
635.027823	0.377583
635.373257	0.377966
635.718639	0.381082
636.063968	0.380987
636.409245	0.386330
636.754470	0.386673
637.099642	0.389479
637.444762	0.392878
637.789829	0.391365
638.134845	0.395407
638.479808	0.396296
638.824719	0.395991
639.169577	0.399653
639.514383	0.398939
639.859137	0.403099
640.203839	0.402898
640.548489	0.403669
640.893086	0.404804
641.237632	0.406689
641.582125	0.404761
641.926566	0.406425
642.270955	0.406741
642.615292	0.406863
642.959576	0.405981
643.303809	0.406274
643.647990	0.405738
643.992118	0.407013
644.336195	0.410519
644.680219	0.408377
645.024192	0.409194
645.368112	0.403202
645.711981	0.402006
646.055797	0.397258
646.399562	0.399498
646.743274	0.391440
647.086935	0.389013
647.430544	0.389210
647.774101	0.388222
648.117606	0.387418
648.461059	0.388138
648.804460	0.390561
649.147810	0.395775
649.491108	0.397694
649.834354	0.398847
650.177548	0.404229
650.520690	0.409754
650.863781	0.410810
651.206820	0.410573
651.549807	0.415200
651.892742	0.418778
652.235626	0.418643
652.578458	0.419314
652.921238	0.425046
653.263967	0.423259
653.606644	0.427350
653.949269	0.426997
654.291843	0.430667
654.634365	0.426948
654.976836	0.430734
655.319255	0.430826
655.661622	0.432738
656.003938	0.432774
656.346203	0.435121
656.688416	0.433058
657.030577	0.436736
657.372687	0.438326
657.714746	0.439499
658.056753	0.436799
658.398708	0.440337
658.740612	0.441471
659.082465	0.437496
659.424266	0.438327
659.766016	0.437816
660.107715	0.440043
660.449362	0.439240
660.790958	0.440152
661.132503	0.440401
661.473996	0.437771
661.815438	0.438417
662.156829	0.438958
662.498168	0.439665
662.839456	0.441168
663.180693	0.439214
663.521879	0.438561
663.863013	0.439691
664.204097	0.438043
664.545129	0.435719
664.886110	0.435444
665.227040	0.433202
665.567918	0.435634
665.908746	0.433498
666.249522	0.432667
666.590248	0.434200
666.930922	0.432317
667.271545	0.431282
667.612118	0.431460
667.952639	0.433440
668.293109	0.431742
668.633528	0.434701
668.973896	0.434306
669.314213	0.435180
669.654480	0.436394
669.994695	0.437438
670.334859	0.437437
670.674973	0.437956
671.015035	0.438080
671.355047	0.437581
671.695008	0.438882
672.034918	0.440712
672.374777	0.439794
672.714585	0.441357
673.054342	0.441391
673.394049	0.441099
673.733705	0.438837
674.073310	0.440121
674.412864	0.443405
674.752368	0.443603
675.091820	0.443768
675.431223	0.448655
675.770574	0.448102
676.109875	0.450903
676.449125	0.451234
676.788324	0.453593
677.127473	0.459023
677.466571	0.458650
677.805619	0.459829
678.144616	0.461144
678.483562	0.463196
678.822458	0.465355
679.161303	0.466969
679.500098	0.467075
679.838842	0.468746
680.177535	0.468492
680.516179	0.467468
680.854771	0.465192
681.193314	0.458955
681.531805	0.450320
681.870247	0.439328
682.208638	0.431957
682.546978	0.430574
682.885268	0.431888
683.223508	0.438642
683.561697	0.442221
683.899836	0.445000
684.237925	0.448447
684.575963	0.450755
684.913951	0.453899
685.251889	0.449610
685.589776	0.451684
685.927614	0.453953
686.265401	0.448608
686.603137	0.449876
686.940824	0.443778
687.278460	0.442018
687.616046	0.441468
687.953582	0.436278
688.291068	0.437549
688.628504	0.433698
688.965889	0.435377
689.303224	0.439987
689.640510	0.443455
689.977745	0.449299
690.314930	0.457627
690.652065	0.461724
690.989150	0.469288
691.326185	0.475721
691.663170	0.480172
692.000105	0.487565
692.336990	0.494301
692.673825	0.497204
693.010610	0.503801
693.347345	0.508938
693.684030	0.510671
694.020665	0.515699
694.357251	0.523993
694.693786	0.523642
695.030272	0.527793
695.366707	0.531205
695.703093	0.534701
696.039429	0.532702
696.375716	0.534555
696.711952	0.537026
697.048139	0.538800
697.384276	0.541132
697.720363	0.538625
698.056400	0.538335
698.392388	0.543959
698.728326	0.546805
699.064214	0.549291
699.400053	0.550771
699.735842	0.553688
700.071581	0.557196
700.407270	0.559953
700.742910	0.562040
701.078501	0.569029
701.414042	0.569061
701.749533	0.571911
702.084974	0.580823
702.420366	0.573220
702.755709	0.580828
703.091002	0.588739
703.426246	0.581977
703.761440	0.587553
704.096584	0.592426
704.431679	0.589696
704.766725	0.591665
705.101721	0.593320
705.436668	0.588992
705.771565	0.595438
706.106413	0.593158
706.441212	0.587958
706.775961	0.587146
707.110661	0.589692
707.445311	0.586000
707.779913	0.583102
708.114465	0.582187
708.448967	0.579338
708.783421	0.571267
709.117825	0.565315
709.452180	0.565549
709.786485	0.559802
710.120742	0.549309
710.454949	0.551377
710.789107	0.543383
711.123216	0.534806
711.457275	0.537093
711.791286	0.526932
712.125247	0.526464
712.459159	0.536921
712.793023	0.529663
713.126837	0.533775
713.460602	0.534008
713.794318	0.543098
714.127985	0.542026
714.461602	0.552069
714.795171	0.555179
715.128691	0.563379
715.462162	0.570447
715.795584	0.576074
716.128957	0.579124
716.462281	0.585247
716.795556	0.588662
717.128782	0.594353
717.461960	0.603849
717.795088	0.602128
718.128167	0.607831
718.461198	0.616748
718.794180	0.617084
719.127113	0.620609
719.459997	0.623744
719.792833	0.630107
720.125619	0.631650
720.458357	0.637725
720.791046	0.636840
721.123686	0.639886
721.456278	0.647007
721.788821	0.644534
722.121315	0.648324
722.453761	0.652827
722.786158	0.650599
723.118506	0.647178
723.450805	0.655444
723.783056	0.651322
724.115259	0.648407
724.447412	0.648461
724.779518	0.648818
725.111574	0.648491
725.443582	0.643882
725.775542	0.645482
726.107453	0.638518
726.439315	0.637942
726.771129	0.636413
727.102895	0.629580
727.434612	0.622734
727.766281	0.620442
728.097901	0.620226
728.429473	0.619532
728.760996	0.618884
729.092471	0.618572
729.423897	0.621967
729.755276	0.621550
730.086606	0.620733
730.417887	0.615416
730.749120	0.606819
731.080305	0.597682
731.411442	0.594098
731.742530	0.598872
732.073570	0.597357
732.404562	0.589884
732.735506	0.590703
733.066401	0.595960
733.397249	0.604658
733.728048	0.616044
734.058798	0.629118
734.389501	0.639460
734.720156	0.649557
735.050762	0.657190
735.381320	0.658270
735.711831	0.667599
736.042293	0.672699
736.372707	0.667861
736.703073	0.672006
737.033391	0.674753
737.363661	0.672245
737.693883	0.667962
738.024056	0.665998
738.354182	0.666857
738.684260	0.655408
739.014290	0.651733
739.344272	0.652159
739.674207	0.646002
740.004093	0.645468
740.333931	0.645801
740.663722	0.645759
740.993464	0.646114
741.323159	0.650877
741.652806	0.655137
741.982405	0.659693
742.311956	0.664902
742.641460	0.666116
742.970915	0.670583
743.300323	0.677927
743.629683	0.684323
743.958996	0.686082
744.288260	0.690571
744.617477	0.696023
744.946647	0.698111
745.275768	0.703028
745.604842	0.703814
745.933869	0.712408
746.262847	0.713480
746.591778	0.706900
746.920662	0.713510
747.249498	0.719889
747.578286	0.710973
747.907027	0.706871
748.235720	0.707683
748.564365	0.703130
748.892963	0.702418
749.221514	0.705450
749.550017	0.711322
749.878473	0.710549
750.206881	0.717256
750.535242	0.718427
750.863555	0.718431
751.191821	0.719216
751.520039	0.722047
751.848210	0.726022
752.176334	0.719725
752.504411	0.718504
752.832440	0.727239
753.160421	0.731310
753.488356	0.728800
753.816243	0.726225
754.144082	0.734179
754.471875	0.738016
754.799620	0.733697
755.127318	0.735149
755.454969	0.735292
755.782572	0.734576
756.110129	0.739297
756.437638	0.741915
756.765100	0.738040
757.092515	0.736894
757.419882	0.735319
757.747203	0.740341
758.074477	0.739686
758.401703	0.737353
758.728882	0.732041
759.056014	0.730893
759.383099	0.730289
759.710138	0.731986
760.037129	0.727680
760.364073	0.722090
760.690970	0.725176
761.017820	0.730636
761.344623	0.726006
761.671379	0.716344
761.998088	0.705145
762.324751	0.682075
762.651366	0.641035
762.977935	0.575148
763.304456	0.523249
763.630931	0.513915
763.957359	0.552698
764.283740	0.596676
764.610074	0.623923
764.936362	0.654382
765.262602	0.680632
765.588796	0.702383
765.914943	0.720078
766.241044	0.737340
766.567097	0.744176
766.893104	0.754094
767.219064	0.760207
767.544978	0.766013
767.870845	0.780447
768.196665	0.783313
768.522438	0.782282
768.848165	0.783256
769.173846	0.790938
769.499479	0.796505
769.825066	0.799493
770.150607	0.804474
770.476101	0.799237
770.801548	0.800945
771.126949	0.812558
771.452303	0.815762
771.777611	0.815094
772.102872	0.814258
772.428087	0.819387
772.753256	0.823344
773.078378	0.824436
773.403453	0.834365
773.728482	0.838087
774.053465	0.832401
774.378401	0.835666
774.703291	0.843230
775.028135	0.843219
775.352932	0.844826
775.677683	0.847220
776.002388	0.848961
776.327046	0.846850
776.651658	0.850858
776.976224	0.855130
777.300743	0.854803
777.625216	0.856776
777.949643	0.858000
778.274024	0.858522
778.598359	0.860410
778.922647	0.859303
779.246889	0.858981
779.571086	0.862762
779.895236	0.865211
780.219339	0.863358
780.543397	0.859921
780.867409	0.858510
781.191374	0.860501
781.515294	0.861751
781.839167	0.860488
782.162995	0.865015
782.486776	0.861172
782.810511	0.861774
783.134201	0.865278
783.457844	0.862375
783.781441	0.865469
784.104993	0.871900
784.428498	0.871731
784.751958	0.868145
785.075372	0.869168
785.398739	0.873469
785.722061	0.869845
786.045337	0.865958
786.368568	0.871001
786.691752	0.873156
787.014891	0.858783
787.337983	0.850691
787.661030	0.843404
787.984031	0.825264
788.306987	0.813237
788.629897	0.815590
788.952760	0.818215
789.275579	0.824306
789.598351	0.838346
789.921078	0.851359
790.243759	0.852981
790.566395	0.857879
790.888984	0.865097
791.211529	0.869779
791.534027	0.873677
791.856480	0.875533
792.178888	0.880393
792.501249	0.882877
792.823566	0.884689
793.145836	0.883936
793.468062	0.885657
793.790241	0.887329
794.112375	0.884267
794.434464	0.879427
794.756507	0.878779
795.078505	0.878888
795.400457	0.873756
795.722364	0.862567
796.044226	0.855212
796.366042	0.853940
796.687812	0.856731
797.009538	0.853875
797.331218	0.855859
797.652852	0.861200
797.974442	0.866606
798.295986	0.866875
798.617484	0.869050
798.938938	0.873331
799.260346	0.876866
799.581709	0.880031
799.903026	0.882701
800.224299	0.882498
800.545526	0.886335
800.866708	0.889847
801.187845	0.894029
801.508936	0.893958
801.829983	0.890764
802.150984	0.894165
802.471940	0.899351
802.792851	0.898724
803.113717	0.899379
803.434538	0.897693
803.755314	0.900109
804.076045	0.900729
804.396731	0.901403
804.717372	0.901111
805.037967	0.903054
805.358518	0.900834
805.679024	0.898534
805.999485	0.898971
806.319901	0.897577
806.640272	0.899539
806.960598	0.897949
807.280879	0.894552
807.601115	0.893901
807.921306	0.897064
808.241453	0.896792
808.561554	0.895968
808.881611	0.894796
809.201623	0.897217
809.521590	0.897360
809.841513	0.897879
810.161390	0.897970
810.481223	0.899656
810.801011	0.902746
811.120755	0.903682
811.440453	0.903158
811.760107	0.902028
812.079716	0.902595
812.399281	0.905996
812.718801	0.907572
813.038276	0.908055
813.357707	0.908198
813.677093	0.904840
813.996434	0.907864
814.315731	0.910938
814.634983	0.910473
814.954191	0.909276
815.273354	0.906749
815.592473	0.902478
815.911547	0.903356
816.230577	0.900453
816.549562	0.897153
816.868502	0.899329
817.187399	0.894645
817.506250	0.889607
817.825058	0.891886
818.143821	0.888924
818.462539	0.883152
818.781213	0.875296
819.099843	0.864093
819.418429	0.848837
819.736970	0.831989
820.055466	0.812523
820.373919	0.788498
820.692327	0.755598
821.010691	0.721503
821.329011	0.645778
821.647286	0.532221
821.965517	0.419782
822.283704	0.377400
822.601847	0.379407
822.919945	0.415099
823.237999	0.447610
823.556010	0.493625
823.873976	0.548806
824.191897	0.598739
824.509775	0.640397
824.827609	0.684883
825.145398	0.707211
825.463144	0.710398
825.780845	0.692870
826.098502	0.674931
826.416116	0.630069
826.733685	0.586217
827.051210	0.578603
827.368692	0.592125
827.686129	0.628976
828.003522	0.681322
828.320872	0.727173
828.638177	0.771583
828.955439	0.804105
829.272656	0.825746
829.589830	0.841992
829.906960	0.857318
830.224046	0.869361
830.541088	0.879643
830.858086	0.883348
831.175041	0.889996
831.491952	0.889063
831.808819	0.884732
832.125642	0.879646
832.442421	0.864759
832.759157	0.843610
833.075849	0.798682
833.392497	0.734710
833.709101	0.694821
834.025662	0.704345
834.342179	0.735889
834.658653	0.773782
834.975083	0.809939
835.291469	0.834887
835.607811	0.856657
835.924110	0.872685
836.240366	0.890020
836.556578	0.904301
836.872746	0.910905
837.188871	0.916835
837.504952	0.921406
837.820990	0.924774
838.136984	0.928332
838.452935	0.931386
838.768842	0.932698
839.084706	0.926289
839.400526	0.902058
839.716303	0.861912
840.032037	0.839872
840.347727	0.843144
840.663373	0.861071
840.978977	0.882075
841.294537	0.904247
841.610054	0.920820
841.925527	0.927286
842.240957	0.934456
842.556344	0.941819
842.871687	0.946918
843.186987	0.951822
843.502244	0.952023
843.817458	0.953081
844.132629	0.957140
844.447756	0.960914
844.762840	0.961896
845.077881	0.961162
845.392879	0.960083
845.707833	0.963844
846.022745	0.964254
846.337613	0.965465
846.652438	0.967046
846.967221	0.966070
847.281960	0.965821
847.596656	0.968927
847.911309	0.967139
848.225919	0.969150
848.540485	0.968753
848.855009	0.970341
849.169490	0.968694
849.483928	0.970505
849.798323	0.970601
850.112675	0.971381
850.426984	0.970481
850.741251	0.970290
851.055474	0.971448
851.369654	0.969809
851.683792	0.970104
851.997887	0.970967
852.311938	0.971023
852.625947	0.970933
852.939914	0.968476
853.253837	0.970700
853.567718	0.972040
853.881555	0.970778
854.195350	0.968636
854.509103	0.970060
854.822812	0.969566
855.136479	0.970156
855.450103	0.970214
855.763685	0.968600
856.077224	0.968925
856.390720	0.971233
856.704173	0.971527
857.017584	0.968604
857.330953	0.967884
857.644278	0.969291
857.957561	0.969494
858.270802	0.968518
858.584000	0.968261
858.897155	0.966826
859.210268	0.968216
859.523339	0.968188
859.836367	0.971906
860.149352	0.971189
860.462295	0.969064
860.775195	0.971613
861.088054	0.969612
861.400869	0.970416
861.713642	0.971617
862.026373	0.971662
862.339062	0.972022
862.651708	0.968958
862.964312	0.968316
863.276873	0.969674
863.589392	0.969103
863.901869	0.967539
864.214303	0.966594
864.526696	0.965504
864.839045	0.963204
865.151353	0.962881
865.463619	0.963377
865.775842	0.963385
866.088023	0.962863
866.400162	0.963445
866.712258	0.962949
867.024313	0.963324
867.336325	0.964378
867.648296	0.964139
867.960224	0.962858
868.272110	0.962423
868.583954	0.965582
868.895755	0.964428
869.207515	0.962456
869.519233	0.960153
869.830909	0.962314
870.142542	0.964222
870.454134	0.962915
870.765684	0.962099
871.077191	0.959267
871.388657	0.960344
871.700081	0.958335
872.011463	0.960154
872.322803	0.958606
872.634101	0.958244
872.945357	0.956356
873.256571	0.955117
873.567744	0.953935
873.878874	0.954941
874.189963	0.954317
874.501010	0.952161
874.812015	0.951658
875.122979	0.954023
875.433900	0.954658
875.744780	0.955766
876.055618	0.952596
876.366415	0.951366
876.677169	0.950981
876.987882	0.952724
877.298554	0.952432
877.609183	0.949183
877.919771	0.946844
878.230317	0.944857
878.540822	0.942676
878.851285	0.936860
879.161707	0.929815
879.472087	0.917995
879.782425	0.902364
880.092722	0.868714
880.402977	0.819859
880.713191	0.760273
881.023363	0.703142
881.333494	0.670956
881.643583	0.642777
881.953631	0.642629
882.263637	0.670296
882.573602	0.709588
882.883526	0.734561
883.193408	0.756786
883.503248	0.778802
883.813048	0.804878
884.122806	0.834049
884.432522	0.855819
884.742197	0.876509
885.051831	0.886285
885.361424	0.895524
885.670975	0.907499
885.980485	0.917095
886.289954	0.922556
886.599382	0.927406
886.908768	0.931995
887.218113	0.936812
887.527417	0.941659
887.836680	0.944304
888.145901	0.945465
888.455082	0.948198
888.764221	0.951559
889.073319	0.954350
889.382376	0.954438
889.691392	0.955340
890.000366	0.954624
890.309300	0.956370
890.618193	0.954194
890.927044	0.953947
891.235855	0.953099
891.544625	0.952387
891.853353	0.952041
892.162041	0.951036
892.470687	0.945182
892.779293	0.940461
893.087858	0.935554
893.396381	0.929302
893.704864	0.917240
894.013306	0.893201
894.321707	0.868879
894.630068	0.854287
894.938387	0.849979
895.246665	0.850924
895.554903	0.862931
895.863100	0.875143
896.171256	0.892205
896.479371	0.911402
896.787446	0.923929
897.095480	0.929303
897.403473	0.932173
897.711425	0.934717
898.019336	0.943616
898.327207	0.945725
898.635038	0.947563
898.942827	0.947464
899.250576	0.950972
899.558284	0.954060
899.865952	0.956557
900.173579	0.957389
900.481165	0.957092
900.788711	0.960908
901.096216	0.962183
901.403681	0.963406
901.711105	0.964124
902.018489	0.965113
902.325832	0.963462
902.633135	0.963805
902.940397	0.957217
903.247619	0.946792
903.554800	0.921550
903.861941	0.884160
904.169041	0.849991
904.476101	0.834509
904.783121	0.834362
905.090100	0.850548
905.397039	0.871550
905.703938	0.890719
906.010796	0.910127
906.317614	0.926454
906.624391	0.937027
906.931129	0.945949
907.237826	0.955165
907.544483	0.960422
907.851099	0.965077
908.157675	0.968927
908.464211	0.971735
908.770707	0.973896
909.077163	0.975211
909.383578	0.975789
909.689954	0.976646
909.996289	0.976565
910.302584	0.978777
910.608839	0.980729
910.915054	0.979568
911.221229	0.979008
911.527363	0.978220
911.833458	0.978665
912.139513	0.977730
912.445527	0.976879
912.751502	0.975186
913.057436	0.974400
913.363331	0.971276
913.669186	0.968370
913.975000	0.962979
914.280775	0.956763
914.586510	0.951523
914.892205	0.937951
915.197859	0.918670
915.503475	0.892806
915.809050	0.873362
916.114585	0.869377
916.420081	0.867032
916.725536	0.862600
917.030952	0.871321
917.336328	0.883035
917.641665	0.897816
917.946961	0.912133
918.252218	0.923278
918.557435	0.931982
918.862612	0.940265
919.167750	0.945799
919.472848	0.949564
919.777906	0.955251
920.082925	0.960857
920.387904	0.963964
920.692843	0.964527
920.997743	0.965457
921.302603	0.968798
921.607423	0.970967
921.912204	0.973333
922.216946	0.973025
922.521647	0.974361
922.826310	0.976033
923.130932	0.977725
923.435516	0.979240
923.740059	0.979948
924.044564	0.979563
924.349028	0.980718
924.653454	0.983359
924.957840	0.986509
925.262186	0.985302
925.566493	0.983497
925.870761	0.985454
926.174989	0.986862
926.479178	0.988518
926.783328	0.988377
927.087438	0.988642
927.391509	0.987694
927.695541	0.990917
927.999533	0.989147
928.303486	0.989804
928.607400	0.991046
928.911275	0.990106
929.215110	0.990731
929.518906	0.990700
929.822663	0.990418
930.126381	0.990702
930.430060	0.990834
930.733699	0.989961
931.037299	0.989966
931.340861	0.991159
931.644383	0.989678
931.947866	0.988939
932.251309	0.991711
932.554714	0.992100
932.858080	0.990331
933.161407	0.991152
933.464694	0.990716
933.767943	0.989280
934.071153	0.991970
934.374323	0.992516
934.677455	0.991298
934.980548	0.992358
935.283602	0.991083
935.586617	0.992304
935.889593	0.992162
936.192530	0.990387
936.495428	0.991655
936.798287	0.991060
937.101108	0.991602
937.403890	0.989592
937.706632	0.990530
938.009336	0.987496
938.312002	0.986766
938.614628	0.985264
938.917216	0.984553
939.219765	0.983307
939.522275	0.984352
939.824747	0.984401
940.127179	0.984358
940.429573	0.985577
940.731929	0.985618
941.034246	0.985731
941.336524	0.986951
941.638763	0.987402
941.940964	0.986657
942.243126	0.987294
942.545250	0.988170
942.847335	0.989043
943.149381	0.988443
943.451389	0.988306
943.753359	0.988694
944.055290	0.991361
944.357182	0.989139
944.659036	0.989634
944.960851	0.989981
945.262628	0.990152
945.564367	0.990003
945.866067	0.990686
946.167729	0.989945
946.469352	0.991121
946.770937	0.988639
947.072484	0.991870
947.373992	0.990370
947.675462	0.990169
947.976893	0.991584
948.278286	0.990343
948.579641	0.992515
948.880958	0.990277
949.182236	0.992051
949.483476	0.991982
949.784678	0.990772
950.085841	0.991338
950.386967	0.991954
950.688054	0.991767
950.989103	0.991383
951.290114	0.988966
951.591087	0.990523
951.892021	0.989602
952.192917	0.989700
952.493776	0.988439
952.794596	0.989115
953.095378	0.988959
953.396122	0.989274
953.696828	0.988350
953.997496	0.990503
954.298126	0.991542
954.598718	0.989875
954.899272	0.992936
955.199788	0.991149
955.500266	0.992323
955.800706	0.993805
956.101108	0.994264
956.401472	0.994068
956.701798	0.994287
957.002087	0.993787
957.302337	0.994747
957.602550	0.995079
957.902724	0.995193
958.202861	0.994649
958.502960	0.995230
958.803022	0.992967
959.103045	0.996142
959.403031	0.996473
959.702979	0.995364
960.002889	0.995954
960.302762	0.994324
960.602596	0.996296
960.902393	0.993908
961.202153	0.996418
961.501875	0.996611
961.801559	0.995864
962.101205	0.994998
962.400814	0.995918
962.700385	0.996810
962.999918	0.995440
963.299414	0.996301
963.598873	0.995870
963.898293	0.995386
964.197677	0.995974
964.497022	0.996800
964.796331	0.996505
965.095601	0.997339
965.394835	0.996199
965.694030	0.996774
965.993189	0.997960
966.292309	0.996035
966.591393	0.997564
966.890439	0.997893
967.189447	0.997208
967.488419	0.996384
967.787353	0.996161
968.086249	0.997727
968.385108	0.996954
968.683930	0.996672
968.982714	0.997521
969.281462	0.996918
969.580172	0.996574
969.878844	0.998190
970.177480	0.997801
970.476078	0.995994
970.774639	0.996722
971.073162	0.997396
971.371649	0.996640
971.670098	0.996083
971.968510	0.998010
972.266885	0.996429
972.565223	0.996345
972.863524	0.995929
973.161788	0.996086
973.460014	0.997604
973.758204	0.996719
974.056356	0.997412
974.354471	0.993775
974.652550	0.997112
974.950591	0.996049
975.248595	0.996826
975.546563	0.996898
975.844493	0.997780
976.142386	0.996933
976.440243	0.997946
976.738062	0.997013
977.035845	0.997438
977.333590	0.996683
977.631299	0.997394
977.928971	0.996556
978.226606	0.996327
978.524204	0.995749
978.821765	0.997528
979.119290	0.996571
979.416777	0.997529
979.714228	0.997162
980.011642	0.995720
980.309020	0.997818
980.606360	0.996758
980.903664	0.998146
981.200931	0.996844
981.498162	0.994567
981.795356	0.994614
982.092513	0.995035
982.389633	0.994354
982.686717	0.991365
982.983764	0.991740
983.280775	0.990937
983.577749	0.990304
983.874686	0.992444
984.171587	0.992421
984.468451	0.994273
984.765279	0.995367
985.062070	0.993686
985.358824	0.995950
985.655543	0.994480
985.952224	0.997459
986.248869	0.996783
986.545478	0.996894
986.842050	0.998246
987.138586	0.995656
987.435086	0.997998
987.731549	0.998612
988.027975	0.997746
988.324366	0.998491
988.620719	0.996308
988.917037	0.995976
989.213318	0.998143
989.509563	0.998493
989.805772	0.997993
990.101944	0.998737
990.398080	0.997057
990.694180	0.997226
990.990244	0.997443
991.286271	0.997382
991.582262	0.997779
991.878217	0.997287
992.174136	0.998830
992.470019	0.998211
992.765865	0.997410
993.061676	0.997046
993.357450	0.998512
993.653188	0.997606
993.948890	0.997463
994.244556	0.997528
994.540186	0.997716
994.835780	0.996592
995.131337	0.997989
995.426859	0.995883
995.722345	0.996622
996.017795	0.996231
996.313208	0.996842
996.608586	0.996065
996.903928	0.997802
997.199234	0.996479
997.494504	0.996926
997.789738	0.995953
998.084936	0.996390
998.380099	0.996970
998.675225	0.997016
998.970316	0.997291
999.265371	0.997398
999.560390	0.997979
999.855373	0.998587
1000.150320	0.997193
1000.445232	0.998211
1000.740108	0.998080
1001.034948	0.997854
1001.329752	0.998776
1001.624521	0.997987
1001.919254	0.997748
1002.213951	0.997826
1002.508613	0.997898
1002.803239	0.998657
1003.097829	0.999543
1003.392384	0.997480
1003.686903	0.997119
1003.981386	0.999599
1004.275834	0.998696
1004.570246	0.997969
1004.864623	0.999267
1005.158964	0.999043
1005.453270	0.997775
1005.747540	0.997940
1006.041775	0.999443
1006.335974	0.998862
1006.630138	0.999904
1006.924266	0.998861
1007.218359	0.999988
1007.512416	0.999541
1007.806438	0.999139
1008.100425	0.999344
1008.394376	0.997360
1008.688292	0.997918
1008.982172	0.999792
1009.276017	0.998575
1009.569827	0.998805
1009.863602	0.998870
1010.157341	0.999529
1010.451045	0.999349
1010.744714	0.999502
1011.038347	0.998986
1011.331945	0.999063
1011.625508	0.997738
1011.919036	0.998929
1012.212528	0.998913
1012.505986	0.997700
1012.799408	0.998310
1013.092795	0.998596
1013.386147	0.998725
1013.679464	0.999684
1013.972745	0.998326
1014.265992	0.997967
1014.559204	0.998609
1014.852380	0.998947
1015.145521	0.998815
1015.438628	0.998686
1015.731699	0.998741
1016.024736	0.999878
1016.317737	0.998349
1016.610703	0.999072
1016.903635	0.999852
1017.196531	0.998840
1017.489393	1.000071
1017.782219	0.997876
1018.075011	0.998325
1018.367768	0.998765
1018.660490	0.999373
1018.953177	0.999373
1019.245829	0.999373
