Dividing Wavelength (nm)	Counts (n)	Blue Motor Position (mm): 0.000000	Red Motor Position (mm): 18.300000	
326.493990	1.001304
326.888308	1.001304
327.282561	1.001304
327.676750	0.999894
328.070874	0.999942
328.464933	1.001214
328.858929	1.000588
329.252859	1.000184
329.646726	1.000862
330.040528	0.999578
330.434265	1.000727
330.827938	1.002246
331.221547	1.000465
331.615091	1.001399
332.008571	1.001152
332.401986	1.000182
332.795338	1.000532
333.188625	0.999289
333.581847	1.001503
333.975006	0.999243
334.368100	1.000061
334.761129	1.000698
335.154095	1.002140
335.546996	0.998551
335.939833	0.993961
336.332606	0.994035
336.725315	0.994967
337.117960	0.995598
337.510540	0.994305
337.903056	0.995475
338.295508	0.993523
338.687896	0.995024
339.080220	0.995202
339.472480	0.995282
339.864676	0.995078
340.256807	0.994564
340.648875	0.995921
341.040879	0.995362
341.432818	0.995075
341.824694	0.994756
342.216506	0.995622
342.608253	0.995161
342.999937	0.995040
343.391557	0.994597
343.783113	0.994487
344.174605	0.995246
344.566033	0.995128
344.957397	0.994305
345.348697	0.994789
345.739934	0.993444
346.131106	0.993753
346.522215	0.993286
346.913260	0.993584
347.304241	0.994601
347.695159	0.994173
348.086012	0.993196
348.476802	0.994546
348.867528	0.995141
349.258191	0.993958
349.648789	0.995863
350.039324	0.993749
350.429796	0.994608
350.820203	0.995857
351.210548	0.994065
351.600828	0.995157
351.991045	0.994721
352.381198	0.994114
352.771288	0.994160
353.161314	0.993975
353.551276	0.996121
353.941175	0.994527
354.331010	0.993929
354.720782	0.994696
355.110490	0.993608
355.500135	0.995769
355.889717	0.993736
356.279235	0.994362
356.668689	0.993734
357.058080	0.994164
357.447408	0.995228
357.836672	0.994175
358.225873	0.995442
358.615010	0.994385
359.004084	0.995230
359.393095	0.994688
359.782043	0.994873
360.170927	0.996005
360.559748	0.994548
360.948505	0.994377
361.337199	0.993730
361.725830	0.994297
362.114398	0.994810
362.502903	0.993578
362.891344	0.996326
363.279722	0.993364
363.668037	0.995564
364.056289	0.994147
364.444478	0.995331
364.832603	0.994149
365.220665	0.995124
365.608665	0.993577
365.996601	0.994707
366.384474	0.994035
366.772284	0.995210
367.160031	0.993497
367.547715	0.992780
367.935336	0.994082
368.322893	0.994200
368.710388	0.993506
369.097820	0.993912
369.485189	0.994900
369.872495	0.993427
370.259738	0.992255
370.646918	0.994645
371.034035	0.995784
371.421090	0.994762
371.808081	0.993869
372.195010	0.994047
372.581875	0.994720
372.968678	0.995587
373.355418	0.994321
373.742096	0.994270
374.128710	0.996501
374.515262	0.994355
374.901751	0.994938
375.288177	0.994335
375.674540	0.995127
376.060841	0.994161
376.447079	0.996124
376.833254	0.994771
377.219367	0.995644
377.605417	0.996991
377.991404	0.995487
378.377329	0.994167
378.763191	0.995722
379.148991	0.995655
379.534727	0.995285
379.920402	0.995222
380.306013	0.995839
380.691563	0.996443
381.077049	0.994277
381.462474	0.995886
381.847835	0.996372
382.233134	0.995211
382.618371	0.995227
383.003545	0.994513
383.388657	0.995329
383.773706	0.996457
384.158693	0.995968
384.543618	0.996086
384.928480	0.995945
385.313280	0.995599
385.698017	0.996922
386.082692	0.996605
386.467305	0.996462
386.851856	0.996121
387.236344	0.995594
387.620770	0.995201
388.005133	0.995967
388.389435	0.996594
388.773674	0.996702
389.157851	0.995646
389.541965	0.996520
389.926018	0.995380
390.310008	0.996931
390.693936	0.996090
391.077802	0.995842
391.461606	0.995495
391.845348	0.996402
392.229027	0.996899
392.612645	0.996156
392.996200	0.996942
393.379694	0.996358
393.763125	0.996496
394.146494	0.995971
394.529801	0.995421
394.913047	0.995980
395.296230	0.995454
395.679351	0.995546
396.062410	0.995947
396.445408	0.996217
396.828343	0.995845
397.211217	0.995067
397.594028	0.995757
397.976778	0.995179
398.359466	0.995732
398.742092	0.995295
399.124656	0.994715
399.507158	0.995265
399.889598	0.995617
400.271977	0.995656
400.654294	0.995520
401.036549	0.996215
401.418742	0.996685
401.800874	0.994525
402.182944	0.994762
402.564952	0.993746
402.946898	0.995306
403.328783	0.993694
403.710606	0.994264
404.092367	0.992623
404.474067	0.991510
404.855705	0.991556
405.237282	0.990435
405.618797	0.989751
406.000250	0.987133
406.381642	0.986479
406.762972	0.984174
407.144240	0.983285
407.525447	0.980582
407.906593	0.978006
408.287677	0.975526
408.668700	0.972890
409.049661	0.968298
409.430560	0.965145
409.811399	0.962334
410.192176	0.957155
410.572891	0.953897
410.953545	0.949292
411.334138	0.945094
411.714669	0.941408
412.095139	0.937642
412.475547	0.930770
412.855894	0.926086
413.236180	0.920801
413.616405	0.916520
413.996568	0.908005
414.376670	0.903378
414.756711	0.899068
415.136691	0.891657
415.516609	0.882640
415.896466	0.875081
416.276262	0.866031
416.655997	0.860469
417.035670	0.847130
417.415283	0.837681
417.794834	0.830363
418.174324	0.825485
418.553753	0.820450
418.933121	0.805341
419.312428	0.793903
419.691674	0.787171
420.070859	0.774012
420.449983	0.768823
420.829045	0.754961
421.208047	0.750839
421.586988	0.738438
421.965867	0.728662
422.344686	0.713528
422.723444	0.711650
423.102141	0.712710
423.480777	0.687796
423.859352	0.691131
424.237866	0.668086
424.616319	0.660379
424.994712	0.646490
425.373044	0.644507
425.751314	0.627740
426.129524	0.630333
426.507673	0.611620
426.885762	0.599592
427.263789	0.595004
427.641756	0.596013
428.019662	0.580535
428.397508	0.572341
428.775292	0.568861
429.153016	0.556089
429.530679	0.554692
429.908282	0.542907
430.285824	0.546200
430.663305	0.521686
431.040726	0.533639
431.418086	0.529511
431.795385	0.517602
432.172624	0.510562
432.549802	0.507229
432.926920	0.501263
433.303977	0.496740
433.680974	0.490178
434.057910	0.485022
434.434786	0.482235
434.811601	0.480431
435.188355	0.460693
435.565050	0.467095
435.941683	0.465692
436.318257	0.448368
436.694770	0.446084
437.071222	0.442012
437.447614	0.444730
437.823946	0.448806
438.200218	0.437095
438.576429	0.445095
438.952580	0.436567
439.328670	0.432145
439.704700	0.437208
440.080670	0.436941
440.456580	0.417392
440.832429	0.424525
441.208218	0.434370
441.583947	0.423168
441.959616	0.422530
442.335224	0.426715
442.710773	0.416878
443.086261	0.414944
443.461689	0.428591
443.837057	0.417806
444.212365	0.407575
444.587612	0.414681
444.962800	0.403768
445.337927	0.405369
445.712995	0.431201
446.088002	0.393859
446.462949	0.403716
446.837837	0.408206
447.212664	0.396938
447.587431	0.388652
447.962139	0.359038
448.336786	0.318861
448.711374	0.328542
449.085901	0.372064
449.460369	0.376747
449.834776	0.379962
450.209124	0.359795
450.583412	0.352525
450.957640	0.344858
451.331808	0.356027
451.705917	0.379560
452.079965	0.383889
452.453954	0.372384
452.827883	0.379236
453.201752	0.373668
453.575562	0.385228
453.949311	0.373689
454.323001	0.379292
454.696632	0.375792
455.070202	0.368079
455.443713	0.359965
455.817164	0.354986
456.190556	0.350520
456.563888	0.347288
456.937160	0.345344
457.310373	0.361952
457.683526	0.360718
458.056619	0.366580
458.429653	0.367515
458.802628	0.370693
459.175542	0.364988
459.548398	0.347648
459.921194	0.340337
460.293930	0.339993
460.666607	0.317612
461.039224	0.306042
461.411782	0.301801
461.784280	0.300992
462.156719	0.305474
462.529099	0.309556
462.901419	0.325480
463.273680	0.330001
463.645882	0.329338
464.018024	0.335523
464.390106	0.328192
464.762130	0.312961
465.134094	0.296117
465.505999	0.265317
465.877845	0.235995
466.249631	0.223169
466.621358	0.230495
466.993026	0.244327
467.364634	0.250404
467.736184	0.259139
468.107674	0.267755
468.479105	0.266932
468.850477	0.274028
469.221790	0.280479
469.593043	0.291020
469.964238	0.295765
470.335373	0.295303
470.706449	0.293282
471.077467	0.294104
471.448425	0.256014
471.819324	0.231836
472.190164	0.231004
472.560945	0.259965
472.931667	0.282076
473.302330	0.286152
473.672934	0.298257
474.043479	0.286267
474.413965	0.288152
474.784393	0.291658
475.154761	0.286704
475.525070	0.283959
475.895321	0.289490
476.265513	0.283480
476.635645	0.278973
477.005719	0.279225
477.375734	0.275493
477.745691	0.269032
478.115588	0.265382
478.485427	0.259199
478.855207	0.245933
479.224928	0.228563
479.594591	0.216658
479.964194	0.220247
480.333739	0.221098
480.703226	0.223012
481.072653	0.221333
481.442022	0.216723
481.811333	0.213312
482.180584	0.217074
482.549777	0.222119
482.918912	0.225560
483.287988	0.225043
483.657005	0.224808
484.025964	0.231272
484.394864	0.228521
484.763706	0.229191
485.132489	0.234137
485.501213	0.235008
485.869879	0.233065
486.238487	0.236616
486.607036	0.234299
486.975527	0.238812
487.343959	0.234910
487.712333	0.233763
488.080648	0.235078
488.448905	0.234428
488.817104	0.235519
489.185244	0.230006
489.553326	0.227141
489.921350	0.217084
490.289315	0.199378
490.657222	0.194588
491.025070	0.195750
491.392861	0.197674
491.760593	0.203410
492.128267	0.209039
492.495883	0.214566
492.863440	0.220723
493.230939	0.227146
493.598380	0.228212
493.965763	0.230070
494.333088	0.232972
494.700354	0.234328
495.067563	0.233364
495.434713	0.236296
495.801805	0.234298
496.168839	0.235754
496.535815	0.237093
496.902733	0.237366
497.269593	0.238959
497.636395	0.236306
498.003139	0.236835
498.369825	0.239679
498.736453	0.236070
499.103023	0.237559
499.469535	0.236982
499.835989	0.237458
500.202385	0.238380
500.568723	0.241623
500.935003	0.236985
501.301226	0.241191
501.667390	0.235430
502.033497	0.233431
502.399546	0.236376
502.765537	0.238020
503.131470	0.236960
503.497345	0.232790
503.863163	0.241644
504.228923	0.234544
504.594625	0.233385
504.960269	0.238734
505.325856	0.234069
505.691385	0.238218
506.056856	0.235338
506.422270	0.234759
506.787625	0.236980
507.152924	0.234198
507.518164	0.234448
507.883347	0.236501
508.248472	0.238271
508.613540	0.233407
508.978550	0.235870
509.343503	0.236123
509.708398	0.233851
510.073236	0.231659
510.438016	0.231746
510.802738	0.232450
511.167403	0.231497
511.532010	0.233515
511.896561	0.228887
512.261053	0.227665
512.625488	0.230034
512.989866	0.230175
513.354186	0.230286
513.718449	0.232341
514.082655	0.228868
514.446803	0.230928
514.810894	0.228256
515.174927	0.231390
515.538904	0.230496
515.902822	0.227645
516.266684	0.229772
516.630488	0.231000
516.994235	0.229580
517.357925	0.228510
517.721558	0.226966
518.085133	0.226218
518.448651	0.226616
518.812112	0.228613
519.175516	0.228348
519.538863	0.226016
519.902152	0.227499
520.265385	0.224526
520.628560	0.226345
520.991678	0.226714
521.354739	0.225459
521.717743	0.226710
522.080690	0.226948
522.443580	0.224430
522.806413	0.225367
523.169189	0.224812
523.531908	0.223813
523.894569	0.227249
524.257174	0.227114
524.619722	0.224892
524.982213	0.225971
525.344647	0.224900
525.707025	0.225729
526.069345	0.223869
526.431608	0.225417
526.793815	0.223536
527.155964	0.227591
527.518057	0.226530
527.880093	0.227454
528.242072	0.226172
528.603995	0.228037
528.965860	0.229729
529.327669	0.228484
529.689421	0.229642
530.051117	0.230618
530.412755	0.228056
530.774337	0.230344
531.135862	0.230758
531.497331	0.230005
531.858743	0.232777
532.220098	0.229830
532.581396	0.231970
532.942638	0.232622
533.303824	0.233659
533.664953	0.233270
534.026025	0.235087
534.387040	0.233037
534.747999	0.233155
535.108902	0.231881
535.469748	0.236963
535.830537	0.234878
536.191270	0.235359
536.551947	0.234672
536.912567	0.234741
537.273131	0.236381
537.633638	0.236654
537.994089	0.236916
538.354483	0.238002
538.714821	0.234899
539.075103	0.234756
539.435328	0.235177
539.795497	0.239285
540.155609	0.235879
540.515665	0.233962
540.875665	0.239681
541.235609	0.238206
541.595496	0.238028
541.955328	0.234702
542.315102	0.237532
542.674821	0.238477
543.034483	0.238459
543.394090	0.238174
543.753640	0.239896
544.113134	0.234955
544.472571	0.238203
544.831953	0.235024
545.191278	0.239467
545.550548	0.238839
545.909761	0.235754
546.268918	0.236475
546.628019	0.234670
546.987064	0.237393
547.346053	0.239295
547.704986	0.237233
548.063863	0.237464
548.422684	0.237460
548.781449	0.239340
549.140158	0.237024
549.498811	0.240143
549.857408	0.242845
550.215949	0.237853
550.574434	0.240577
550.932864	0.238844
551.291237	0.237419
551.649555	0.238835
552.007817	0.238664
552.366022	0.239312
552.724173	0.239390
553.082267	0.239747
553.440305	0.236983
553.798288	0.241199
554.156215	0.237798
554.514086	0.238581
554.871902	0.241635
555.229661	0.241049
555.587365	0.241368
555.945014	0.243676
556.302606	0.240866
556.660143	0.243166
557.017625	0.239733
557.375050	0.242144
557.732421	0.238856
558.089735	0.241130
558.446994	0.241179
558.804197	0.240459
559.161345	0.240354
559.518437	0.243868
559.875474	0.241340
560.232455	0.241122
560.589381	0.242061
560.946251	0.242061
561.303065	0.239716
561.659825	0.241475
562.016528	0.242616
562.373177	0.245491
562.729770	0.243039
563.086307	0.245183
563.442789	0.242869
563.799216	0.245480
564.155587	0.244157
564.511904	0.245233
564.868164	0.245246
565.224370	0.245339
565.580520	0.247015
565.936615	0.247005
566.292654	0.249900
566.648638	0.247009
567.004567	0.247810
567.360441	0.248360
567.716260	0.250596
568.072023	0.248273
568.427732	0.248945
568.783385	0.251338
569.138982	0.249540
569.494525	0.249283
569.850013	0.252143
570.205445	0.250413
570.560823	0.252722
570.916145	0.254946
571.271412	0.253467
571.626625	0.254762
571.981782	0.255065
572.336884	0.255979
572.691931	0.256005
573.046923	0.256670
573.401860	0.258175
573.756743	0.259965
574.111570	0.258955
574.466342	0.259232
574.821059	0.258336
575.175722	0.261083
575.530330	0.260678
575.884882	0.261438
576.239380	0.263207
576.593823	0.263506
576.948211	0.263281
577.302544	0.266643
577.656823	0.266109
578.011047	0.266144
578.365216	0.266680
578.719330	0.268864
579.073389	0.268439
579.427394	0.269797
579.781344	0.270726
580.135239	0.272129
580.489080	0.271702
580.842866	0.274516
581.196597	0.274313
581.550273	0.273385
581.903895	0.274196
582.257463	0.272172
582.610975	0.275779
582.964434	0.275125
583.317837	0.277848
583.671186	0.277936
584.024481	0.278194
584.377721	0.280558
584.730906	0.281069
585.084037	0.280310
585.437113	0.282485
585.790135	0.281418
586.143103	0.284266
586.496016	0.285805
586.848874	0.283332
587.201679	0.283737
587.554428	0.287217
587.907124	0.286185
588.259765	0.286797
588.612352	0.287347
588.964884	0.290942
589.317362	0.290454
589.669786	0.290498
590.022155	0.289241
590.374470	0.288125
590.726731	0.290502
591.078937	0.295155
591.431090	0.291532
591.783188	0.295692
592.135232	0.296027
592.487222	0.295960
592.839157	0.294473
593.191038	0.296722
593.542866	0.298321
593.894639	0.301620
594.246358	0.300047
594.598022	0.299453
594.949633	0.302972
595.301190	0.303904
595.652692	0.302879
596.004141	0.299255
596.355535	0.306981
596.706876	0.307453
597.058162	0.310405
597.409395	0.307378
597.760573	0.305269
598.111698	0.307942
598.462768	0.308831
598.813785	0.310201
599.164748	0.311392
599.515657	0.311506
599.866511	0.315177
600.217312	0.310106
600.568060	0.315592
600.918753	0.312149
601.269392	0.312784
601.619978	0.316291
601.970510	0.313889
602.320988	0.314272
602.671412	0.311589
603.021783	0.314080
603.372100	0.315375
603.722363	0.315133
604.072572	0.316681
604.422728	0.315754
604.772830	0.317978
605.122878	0.317617
605.472872	0.317976
605.822813	0.316286
606.172701	0.319089
606.522534	0.316432
606.872314	0.316129
607.222041	0.317090
607.571714	0.315786
607.921333	0.317028
608.270899	0.316726
608.620411	0.313557
608.969870	0.317246
609.319276	0.317310
609.668627	0.317403
610.017926	0.315927
610.367171	0.314582
610.716362	0.315050
611.065500	0.315419
611.414585	0.313601
611.763616	0.314614
612.112594	0.315056
612.461518	0.314123
612.810389	0.311984
613.159207	0.314652
613.507971	0.316153
613.856682	0.311989
614.205340	0.313700
614.553945	0.310309
614.902496	0.314756
615.250994	0.312460
615.599439	0.312953
615.947830	0.312355
616.296169	0.313504
616.644454	0.312980
616.992686	0.313267
617.340864	0.310770
617.688990	0.314482
618.037063	0.311088
618.385082	0.313104
618.733048	0.310036
619.080961	0.312128
619.428821	0.311426
619.776628	0.310875
620.124382	0.313056
620.472083	0.313269
620.819731	0.312803
621.167326	0.316726
621.514868	0.316288
621.862357	0.321080
622.209793	0.320041
622.557176	0.322599
622.904506	0.323815
623.251783	0.325918
623.599007	0.328216
623.946179	0.327587
624.293297	0.330037
624.640363	0.333724
624.987376	0.334263
625.334336	0.336395
625.681243	0.339229
626.028097	0.339383
626.374899	0.340398
626.721647	0.340977
627.068343	0.343975
627.414987	0.344810
627.761577	0.347044
628.108115	0.345334
628.454600	0.350647
628.801032	0.347853
629.147412	0.349875
629.493739	0.349955
629.840014	0.353839
630.186236	0.350719
630.532405	0.356365
630.878521	0.354285
631.224585	0.356000
631.570597	0.360345
631.916556	0.357934
632.262462	0.358664
632.608316	0.360322
632.954117	0.361420
633.299866	0.362154
633.645562	0.362906
633.991206	0.367052
634.336797	0.370238
634.682336	0.372057
635.027823	0.373784
635.373257	0.373848
635.718639	0.377725
636.063968	0.376926
636.409245	0.382750
636.754470	0.383345
637.099642	0.386031
637.444762	0.388883
637.789829	0.387835
638.134845	0.391901
638.479808	0.392336
638.824719	0.392419
639.169577	0.396251
639.514383	0.395117
639.859137	0.399395
640.203839	0.399641
640.548489	0.399988
640.893086	0.401041
641.237632	0.402517
641.582125	0.401290
641.926566	0.402609
642.270955	0.402994
642.615292	0.402852
642.959576	0.402025
643.303809	0.402848
643.647990	0.402780
643.992118	0.403093
644.336195	0.406482
644.680219	0.404755
645.024192	0.405525
645.368112	0.399266
645.711981	0.398541
646.055797	0.393150
646.399562	0.396047
646.743274	0.387766
647.086935	0.385560
647.430544	0.385552
647.774101	0.384386
648.117606	0.384025
648.461059	0.384633
648.804460	0.386413
649.147810	0.392042
649.491108	0.393940
649.834354	0.395739
650.177548	0.400680
650.520690	0.406312
650.863781	0.407348
651.206820	0.406469
651.549807	0.411501
651.892742	0.415314
652.235626	0.414954
652.578458	0.415931
652.921238	0.422130
653.263967	0.419871
653.606644	0.423112
653.949269	0.423433
654.291843	0.427298
654.634365	0.423816
654.976836	0.427276
655.319255	0.428214
655.661622	0.429011
656.003938	0.428796
656.346203	0.432408
656.688416	0.429710
657.030577	0.433236
657.372687	0.434960
657.714746	0.435975
658.056753	0.433049
658.398708	0.436860
658.740612	0.438328
659.082465	0.433975
659.424266	0.434963
659.766016	0.434302
660.107715	0.436599
660.449362	0.435608
660.790958	0.436010
661.132503	0.436902
661.473996	0.434358
661.815438	0.435521
662.156829	0.435429
662.498168	0.435854
662.839456	0.437687
663.180693	0.435483
663.521879	0.435295
663.863013	0.436530
664.204097	0.435236
664.545129	0.431742
664.886110	0.432240
665.227040	0.429476
665.567918	0.432070
665.908746	0.429896
666.249522	0.429656
666.590248	0.430430
666.930922	0.428907
667.271545	0.427755
667.612118	0.428087
667.952639	0.429303
668.293109	0.428025
668.633528	0.431460
668.973896	0.430488
669.314213	0.430763
669.654480	0.433191
669.994695	0.433307
670.334859	0.434017
670.674973	0.434184
671.015035	0.434810
671.355047	0.434413
671.695008	0.435205
672.034918	0.436878
672.374777	0.436263
672.714585	0.437876
673.054342	0.438108
673.394049	0.437914
673.733705	0.435173
674.073310	0.436668
674.412864	0.439840
674.752368	0.440162
675.091820	0.440565
675.431223	0.444553
675.770574	0.444487
676.109875	0.447952
676.449125	0.447769
676.788324	0.449768
677.127473	0.455441
677.466571	0.455056
677.805619	0.456861
678.144616	0.457519
678.483562	0.459682
678.822458	0.461924
679.161303	0.463067
679.500098	0.463040
679.838842	0.464741
680.177535	0.464460
680.516179	0.463097
680.854771	0.462416
681.193314	0.455549
681.531805	0.447169
681.870247	0.435520
682.208638	0.428010
682.546978	0.427206
682.885268	0.428446
683.223508	0.435222
683.561697	0.438885
683.899836	0.441776
684.237925	0.444671
684.575963	0.447281
684.913951	0.450679
685.251889	0.445591
685.589776	0.448623
685.927614	0.450236
686.265401	0.444427
686.603137	0.445810
686.940824	0.440180
687.278460	0.438846
687.616046	0.437888
687.953582	0.432806
688.291068	0.434055
688.628504	0.429888
688.965889	0.432079
689.303224	0.435979
689.640510	0.440019
689.977745	0.446028
690.314930	0.453356
690.652065	0.458540
690.989150	0.465723
691.326185	0.472551
691.663170	0.477015
692.000105	0.483808
692.336990	0.490960
692.673825	0.493485
693.010610	0.499971
693.347345	0.505781
693.684030	0.507359
694.020665	0.512130
694.357251	0.520866
694.693786	0.520215
695.030272	0.524669
695.366707	0.528351
695.703093	0.531717
696.039429	0.529340
696.375716	0.530879
696.711952	0.534256
697.048139	0.535902
697.384276	0.538159
697.720363	0.536445
698.056400	0.535499
698.392388	0.540309
698.728326	0.543494
699.064214	0.546776
699.400053	0.547240
699.735842	0.551304
700.071581	0.553440
700.407270	0.556701
700.742910	0.559241
701.078501	0.565572
701.414042	0.566456
701.749533	0.569057
702.084974	0.577534
702.420366	0.570258
702.755709	0.577737
703.091002	0.585889
703.426246	0.578899
703.761440	0.584625
704.096584	0.589657
704.431679	0.586656
704.766725	0.588796
705.101721	0.590318
705.436668	0.586498
705.771565	0.593323
706.106413	0.590100
706.441212	0.585313
706.775961	0.583982
707.110661	0.586574
707.445311	0.583683
707.779913	0.580506
708.114465	0.578325
708.448967	0.575703
708.783421	0.567583
709.117825	0.562575
709.452180	0.563018
709.786485	0.556343
710.120742	0.546187
710.454949	0.548908
710.789107	0.540416
711.123216	0.531274
711.457275	0.532747
711.791286	0.523854
712.125247	0.522615
712.459159	0.534162
712.793023	0.525619
713.126837	0.530651
713.460602	0.530241
713.794318	0.540474
714.127985	0.539272
714.461602	0.549055
714.795171	0.552310
715.128691	0.559714
715.462162	0.567520
715.795584	0.572650
716.128957	0.576092
716.462281	0.582735
716.795556	0.586539
717.128782	0.591018
717.461960	0.600134
717.795088	0.598689
718.128167	0.605190
718.461198	0.614543
718.794180	0.614876
719.127113	0.617531
719.459997	0.621368
719.792833	0.627466
720.125619	0.628189
720.458357	0.635196
720.791046	0.634308
721.123686	0.637774
721.456278	0.644458
721.788821	0.641737
722.121315	0.645396
722.453761	0.649480
722.786158	0.648404
723.118506	0.644199
723.450805	0.652263
723.783056	0.648558
724.115259	0.645204
724.447412	0.644857
724.779518	0.646252
725.111574	0.645446
725.443582	0.640855
725.775542	0.643208
726.107453	0.635106
726.439315	0.634271
726.771129	0.633598
727.102895	0.626902
727.434612	0.619571
727.766281	0.617225
728.097901	0.616629
728.429473	0.616750
728.760996	0.615310
729.092471	0.615050
729.423897	0.619382
729.755276	0.618353
730.086606	0.618132
730.417887	0.612607
730.749120	0.602906
731.080305	0.594342
731.411442	0.590595
731.742530	0.594926
732.073570	0.594135
732.404562	0.586766
732.735506	0.588131
733.066401	0.593076
733.397249	0.601245
733.728048	0.612970
734.058798	0.626831
734.389501	0.636505
734.720156	0.646757
735.050762	0.653765
735.381320	0.655538
735.711831	0.664317
736.042293	0.669308
736.372707	0.664615
736.703073	0.669806
737.033391	0.672494
737.363661	0.669234
737.693883	0.663902
738.024056	0.662848
738.354182	0.664037
738.684260	0.653153
739.014290	0.648653
739.344272	0.649659
739.674207	0.643211
740.004093	0.642551
740.333931	0.642692
740.663722	0.642599
740.993464	0.643742
741.323159	0.646946
741.652806	0.652676
741.982405	0.657221
742.311956	0.661366
742.641460	0.664492
742.970915	0.667034
743.300323	0.675077
743.629683	0.681766
743.958996	0.684290
744.288260	0.687606
744.617477	0.693746
744.946647	0.695089
745.275768	0.700560
745.604842	0.700437
745.933869	0.710749
746.262847	0.711145
746.591778	0.704405
746.920662	0.710989
747.249498	0.717000
747.578286	0.708397
747.907027	0.704065
748.235720	0.705845
748.564365	0.699806
748.892963	0.700330
749.221514	0.702680
749.550017	0.707701
749.878473	0.707945
750.206881	0.713948
750.535242	0.716652
750.863555	0.715011
751.191821	0.716093
751.520039	0.719977
751.848210	0.724834
752.176334	0.717450
752.504411	0.715222
752.832440	0.723919
753.160421	0.728458
753.488356	0.726496
753.816243	0.723551
754.144082	0.732130
754.471875	0.735747
754.799620	0.731593
755.127318	0.732512
755.454969	0.732534
755.782572	0.731486
756.110129	0.737070
756.437638	0.737913
756.765100	0.736142
757.092515	0.733836
757.419882	0.732399
757.747203	0.738585
758.074477	0.736683
758.401703	0.734589
758.728882	0.729197
759.056014	0.729027
759.383099	0.727539
759.710138	0.728608
760.037129	0.725344
760.364073	0.718549
760.690970	0.721870
761.017820	0.727248
761.344623	0.722997
761.671379	0.714148
761.998088	0.702181
762.324751	0.679602
762.651366	0.637715
762.977935	0.570419
763.304456	0.518845
763.630931	0.509450
763.957359	0.547991
764.283740	0.593011
764.610074	0.619583
764.936362	0.651904
765.262602	0.677591
765.588796	0.699117
765.914943	0.717594
766.241044	0.735049
766.567097	0.741686
766.893104	0.751263
767.219064	0.757866
767.544978	0.763702
767.870845	0.777501
768.196665	0.781143
768.522438	0.779927
768.848165	0.781428
769.173846	0.789869
769.499479	0.793711
769.825066	0.797653
770.150607	0.802904
770.476101	0.797796
770.801548	0.798617
771.126949	0.809821
771.452303	0.814212
771.777611	0.812843
772.102872	0.812266
772.428087	0.818535
772.753256	0.822081
773.078378	0.822668
773.403453	0.832096
773.728482	0.837569
774.053465	0.829425
774.378401	0.833769
774.703291	0.841018
775.028135	0.841369
775.352932	0.842895
775.677683	0.845496
776.002388	0.846605
776.327046	0.844922
776.651658	0.850136
776.976224	0.852777
777.300743	0.853003
777.625216	0.854126
777.949643	0.857167
778.274024	0.857448
778.598359	0.859048
778.922647	0.857517
779.246889	0.857513
779.571086	0.860846
779.895236	0.863520
780.219339	0.860873
780.543397	0.857948
780.867409	0.856772
781.191374	0.859430
781.515294	0.859143
781.839167	0.859493
782.162995	0.861977
782.486776	0.859658
782.810511	0.859841
783.134201	0.864089
783.457844	0.861856
783.781441	0.865087
784.104993	0.870545
784.428498	0.870800
784.751958	0.865353
785.075372	0.869064
785.398739	0.872853
785.722061	0.869177
786.045337	0.864141
786.368568	0.869753
786.691752	0.871914
787.014891	0.857752
787.337983	0.848807
787.661030	0.840912
787.984031	0.823627
788.306987	0.810502
788.629897	0.813134
788.952760	0.816542
789.275579	0.821370
789.598351	0.837375
789.921078	0.849696
790.243759	0.852143
790.566395	0.856533
790.888984	0.864237
791.211529	0.867654
791.534027	0.871897
791.856480	0.874574
792.178888	0.878875
792.501249	0.882310
792.823566	0.882911
793.145836	0.882624
793.468062	0.885163
793.790241	0.885035
794.112375	0.882770
794.434464	0.878840
794.756507	0.878140
795.078505	0.878191
795.400457	0.871781
795.722364	0.860462
796.044226	0.853256
796.366042	0.851703
796.687812	0.856040
797.009538	0.852626
797.331218	0.854271
797.652852	0.860046
797.974442	0.864136
798.295986	0.864521
798.617484	0.866179
798.938938	0.870044
799.260346	0.875840
799.581709	0.877518
799.903026	0.880467
800.224299	0.880227
800.545526	0.885295
800.866708	0.888113
801.187845	0.892266
801.508936	0.892134
801.829983	0.889352
802.150984	0.892592
802.471940	0.898223
802.792851	0.897424
803.113717	0.898569
803.434538	0.897055
803.755314	0.898849
804.076045	0.899907
804.396731	0.900831
804.717372	0.900110
805.037967	0.901664
805.358518	0.899383
805.679024	0.897513
805.999485	0.897080
806.319901	0.897501
806.640272	0.898265
806.960598	0.896206
807.280879	0.894308
807.601115	0.892037
807.921306	0.895465
808.241453	0.896726
808.561554	0.894413
808.881611	0.893569
809.201623	0.896260
809.521590	0.895725
809.841513	0.897788
810.161390	0.896224
810.481223	0.898456
810.801011	0.900915
811.120755	0.903212
811.440453	0.901820
811.760107	0.900360
812.079716	0.900867
812.399281	0.903289
812.718801	0.906628
813.038276	0.907474
813.357707	0.907170
813.677093	0.904620
813.996434	0.907880
814.315731	0.909043
814.634983	0.909518
814.954191	0.907904
815.273354	0.906248
815.592473	0.901755
815.911547	0.902407
816.230577	0.899619
816.549562	0.896246
816.868502	0.896844
817.187399	0.893073
817.506250	0.887450
817.825058	0.890925
818.143821	0.885516
818.462539	0.880912
818.781213	0.872921
819.099843	0.862372
819.418429	0.845726
819.736970	0.830333
820.055466	0.809844
820.373919	0.784341
820.692327	0.750863
821.010691	0.716129
821.329011	0.638664
821.647286	0.523295
821.965517	0.409431
822.283704	0.366558
822.601847	0.367569
822.919945	0.403667
823.237999	0.437228
823.556010	0.484174
823.873976	0.540017
824.191897	0.590669
824.509775	0.634009
824.827609	0.678588
825.145398	0.700757
825.463144	0.704283
825.780845	0.687349
826.098502	0.668672
826.416116	0.622597
826.733685	0.578469
827.051210	0.570062
827.368692	0.584530
827.686129	0.622238
828.003522	0.675128
828.320872	0.722522
828.638177	0.767649
828.955439	0.798819
829.272656	0.821358
829.589830	0.840138
829.906960	0.854412
830.224046	0.866882
830.541088	0.876913
830.858086	0.881415
831.175041	0.887427
831.491952	0.887447
831.808819	0.882786
832.125642	0.876896
832.442421	0.861565
832.759157	0.840414
833.075849	0.793067
833.392497	0.730266
833.709101	0.689248
834.025662	0.699252
834.342179	0.730106
834.658653	0.769160
834.975083	0.805982
835.291469	0.830766
835.607811	0.854638
835.924110	0.870642
836.240366	0.887335
836.556578	0.902398
836.872746	0.907976
837.188871	0.914347
837.504952	0.920206
837.820990	0.924096
838.136984	0.927609
838.452935	0.930034
838.768842	0.932515
839.084706	0.925578
839.400526	0.899538
839.716303	0.859113
840.032037	0.836824
840.347727	0.840609
840.663373	0.858072
840.978977	0.879522
841.294537	0.902109
841.610054	0.918306
841.925527	0.926411
842.240957	0.933210
842.556344	0.940238
842.871687	0.945990
843.186987	0.950376
843.502244	0.949623
843.817458	0.951769
844.132629	0.956251
844.447756	0.960320
844.762840	0.960423
845.077881	0.960813
845.392879	0.960196
845.707833	0.963072
846.022745	0.965349
846.337613	0.966172
846.652438	0.967553
846.967221	0.964766
847.281960	0.965885
847.596656	0.967130
847.911309	0.965278
848.225919	0.967782
848.540485	0.968938
848.855009	0.969394
849.169490	0.967835
849.483928	0.970144
849.798323	0.969635
850.112675	0.970053
850.426984	0.969953
850.741251	0.971310
851.055474	0.970084
851.369654	0.969419
851.683792	0.969823
851.997887	0.970766
852.311938	0.969327
852.625947	0.969399
852.939914	0.969393
853.253837	0.969273
853.567718	0.971196
853.881555	0.971770
854.195350	0.968841
854.509103	0.969304
854.822812	0.969745
855.136479	0.971463
855.450103	0.968851
855.763685	0.969682
856.077224	0.969601
856.390720	0.971012
856.704173	0.971332
857.017584	0.968918
857.330953	0.967964
857.644278	0.968905
857.957561	0.968581
858.270802	0.968340
858.584000	0.968035
858.897155	0.966101
859.210268	0.967376
859.523339	0.969316
859.836367	0.970884
860.149352	0.971854
860.462295	0.968876
860.775195	0.970732
861.088054	0.968842
861.400869	0.970931
861.713642	0.970765
862.026373	0.971811
862.339062	0.971606
862.651708	0.968214
862.964312	0.968507
863.276873	0.970286
863.589392	0.969682
863.901869	0.967671
864.214303	0.966289
864.526696	0.964628
864.839045	0.964854
865.151353	0.961768
865.463619	0.962708
865.775842	0.962357
866.088023	0.962791
866.400162	0.963296
866.712258	0.963392
867.024313	0.962999
867.336325	0.964752
867.648296	0.963763
867.960224	0.963270
868.272110	0.961451
868.583954	0.964318
868.895755	0.963661
869.207515	0.961044
869.519233	0.959786
869.830909	0.961408
870.142542	0.962846
870.454134	0.961430
870.765684	0.960939
871.077191	0.958393
871.388657	0.959119
871.700081	0.958527
872.011463	0.958485
872.322803	0.958590
872.634101	0.956718
872.945357	0.954708
873.256571	0.954568
873.567744	0.955008
873.878874	0.953738
874.189963	0.952590
874.501010	0.951708
874.812015	0.949689
875.122979	0.950716
875.433900	0.953897
875.744780	0.954311
876.055618	0.951478
876.366415	0.950736
876.677169	0.950302
876.987882	0.951510
877.298554	0.951735
877.609183	0.948920
877.919771	0.945511
878.230317	0.943103
878.540822	0.941019
878.851285	0.936290
879.161707	0.926731
879.472087	0.916353
879.782425	0.898551
880.092722	0.864908
880.402977	0.812472
880.713191	0.751826
881.023363	0.693029
881.333494	0.658479
881.643583	0.631038
881.953631	0.630404
882.263637	0.658850
882.573602	0.697974
882.883526	0.725060
883.193408	0.747701
883.503248	0.770337
883.813048	0.797762
884.122806	0.827513
884.432522	0.850570
884.742197	0.870406
885.051831	0.881595
885.361424	0.892312
885.670975	0.902806
885.980485	0.914363
886.289954	0.920455
886.599382	0.924772
886.908768	0.927322
887.218113	0.934646
887.527417	0.939004
887.836680	0.942874
888.145901	0.943631
888.455082	0.946183
888.764221	0.951282
889.073319	0.952804
889.382376	0.954093
889.691392	0.953418
890.000366	0.953955
890.309300	0.954908
890.618193	0.954244
890.927044	0.951947
891.235855	0.951706
891.544625	0.951259
891.853353	0.952144
892.162041	0.949627
892.470687	0.942846
892.779293	0.938666
893.087858	0.934089
893.396381	0.925961
893.704864	0.912393
894.013306	0.888791
894.321707	0.862758
894.630068	0.848020
894.938387	0.843868
895.246665	0.843687
895.554903	0.856733
895.863100	0.870277
896.171256	0.887278
896.479371	0.906373
896.787446	0.918648
897.095480	0.926176
897.403473	0.928696
897.711425	0.933494
898.019336	0.941331
898.327207	0.943160
898.635038	0.945630
898.942827	0.945752
899.250576	0.948951
899.558284	0.952615
899.865952	0.954848
900.173579	0.955694
900.481165	0.956402
900.788711	0.961103
901.096216	0.962995
901.403681	0.961018
901.711105	0.963750
902.018489	0.964188
902.325832	0.962968
902.633135	0.962460
902.940397	0.956232
903.247619	0.943573
903.554800	0.918520
903.861941	0.879043
904.169041	0.843171
904.476101	0.825582
904.783121	0.826876
905.090100	0.843134
905.397039	0.864532
905.703938	0.886808
906.010796	0.905696
906.317614	0.924029
906.624391	0.934989
906.931129	0.944481
907.237826	0.951249
907.544483	0.960481
907.851099	0.963133
908.157675	0.968330
908.464211	0.970475
908.770707	0.973150
909.077163	0.974585
909.383578	0.975347
909.689954	0.975456
909.996289	0.975910
910.302584	0.977644
910.608839	0.979508
910.915054	0.979390
911.221229	0.978946
911.527363	0.977483
911.833458	0.977703
912.139513	0.977637
912.445527	0.975839
912.751502	0.973481
913.057436	0.972956
913.363331	0.970327
913.669186	0.967877
913.975000	0.961803
914.280775	0.955786
914.586510	0.948223
914.892205	0.936536
915.197859	0.914102
915.503475	0.887439
915.809050	0.867984
916.114585	0.862225
916.420081	0.859305
916.725536	0.856218
917.030952	0.863856
917.336328	0.876708
917.641665	0.892281
917.946961	0.908255
918.252218	0.919475
918.557435	0.927729
918.862612	0.936526
919.167750	0.942220
919.472848	0.947560
919.777906	0.952312
920.082925	0.958992
920.387904	0.961928
920.692843	0.963712
920.997743	0.965473
921.302603	0.968484
921.607423	0.968761
921.912204	0.972287
922.216946	0.971808
922.521647	0.973846
922.826310	0.975226
923.130932	0.977497
923.435516	0.978111
923.740059	0.980076
924.044564	0.979205
924.349028	0.980792
924.653454	0.981806
924.957840	0.984605
925.262186	0.984667
925.566493	0.983976
925.870761	0.985312
926.174989	0.986453
926.479178	0.988909
926.783328	0.988664
927.087438	0.989752
927.391509	0.988178
927.695541	0.989963
927.999533	0.989225
928.303486	0.989669
928.607400	0.991858
928.911275	0.989488
929.215110	0.990020
929.518906	0.991004
929.822663	0.990274
930.126381	0.991770
930.430060	0.989935
930.733699	0.990535
931.037299	0.989805
931.340861	0.991093
931.644383	0.990486
931.947866	0.989007
932.251309	0.992042
932.554714	0.990605
932.858080	0.990719
933.161407	0.990573
933.464694	0.991336
933.767943	0.990338
934.071153	0.991046
934.374323	0.992807
934.677455	0.991961
934.980548	0.993182
935.283602	0.990274
935.586617	0.992308
935.889593	0.991508
936.192530	0.992311
936.495428	0.992025
936.798287	0.990350
937.101108	0.991205
937.403890	0.989552
937.706632	0.988877
938.009336	0.986823
938.312002	0.985732
938.614628	0.984944
938.917216	0.983744
939.219765	0.982143
939.522275	0.983264
939.824747	0.983299
940.127179	0.983475
940.429573	0.984982
940.731929	0.984912
941.034246	0.985172
941.336524	0.984924
941.638763	0.985876
941.940964	0.987206
942.243126	0.986850
942.545250	0.987944
942.847335	0.988678
943.149381	0.988388
943.451389	0.989286
943.753359	0.988534
944.055290	0.991490
944.357182	0.989809
944.659036	0.988965
944.960851	0.990248
945.262628	0.990434
945.564367	0.991237
945.866067	0.990235
946.167729	0.990564
946.469352	0.990931
946.770937	0.988906
947.072484	0.991251
947.373992	0.990702
947.675462	0.990260
947.976893	0.990455
948.278286	0.990100
948.579641	0.992149
948.880958	0.991990
949.182236	0.992311
949.483476	0.991621
949.784678	0.990408
950.085841	0.991307
950.386967	0.991672
950.688054	0.991101
950.989103	0.991018
951.290114	0.990718
951.591087	0.989445
951.892021	0.990003
952.192917	0.990359
952.493776	0.988733
952.794596	0.988623
953.095378	0.988569
953.396122	0.988898
953.696828	0.987640
953.997496	0.990278
954.298126	0.990851
954.598718	0.991803
954.899272	0.991131
955.199788	0.990185
955.500266	0.992758
955.800706	0.993268
956.101108	0.993846
956.401472	0.994047
956.701798	0.994721
957.002087	0.993912
957.302337	0.993220
957.602550	0.995687
957.902724	0.995827
958.202861	0.994877
958.502960	0.996525
958.803022	0.994391
959.103045	0.996891
959.403031	0.996680
959.702979	0.996169
960.002889	0.996840
960.302762	0.994454
960.602596	0.997605
960.902393	0.994265
961.202153	0.998148
961.501875	0.998006
961.801559	0.996031
962.101205	0.995567
962.400814	0.996269
962.700385	0.997010
962.999918	0.996190
963.299414	0.997565
963.598873	0.996036
963.898293	0.997198
964.197677	0.996996
964.497022	0.997247
964.796331	0.998298
965.095601	0.997371
965.394835	0.996057
965.694030	0.996533
965.993189	0.998012
966.292309	0.997192
966.591393	0.998057
966.890439	0.997313
967.189447	0.996879
967.488419	0.997866
967.787353	0.997248
968.086249	0.997070
968.385108	0.997672
968.683930	0.997359
968.982714	0.997282
969.281462	0.998535
969.580172	0.996244
969.878844	0.996735
970.177480	0.997008
970.476078	0.997106
970.774639	0.997765
971.073162	0.998186
971.371649	0.997652
971.670098	0.996114
971.968510	0.997677
972.266885	0.996291
972.565223	0.998636
972.863524	0.996191
973.161788	0.996579
973.460014	0.998328
973.758204	0.996893
974.056356	0.995691
974.354471	0.994857
974.652550	0.998499
974.950591	0.995593
975.248595	0.996045
975.546563	0.997194
975.844493	0.998617
976.142386	0.997540
976.440243	0.998890
976.738062	0.996801
977.035845	0.998568
977.333590	0.997270
977.631299	0.999442
977.928971	0.998126
978.226606	0.997359
978.524204	0.996474
978.821765	0.999171
979.119290	0.997038
979.416777	0.997467
979.714228	0.997766
980.011642	0.996766
980.309020	0.997159
980.606360	0.996501
980.903664	0.999302
981.200931	0.995988
981.498162	0.995520
981.795356	0.994519
982.092513	0.993971
982.389633	0.995631
982.686717	0.992573
982.983764	0.991874
983.280775	0.991677
983.577749	0.991409
983.874686	0.992714
984.171587	0.992846
984.468451	0.994779
984.765279	0.995252
985.062070	0.993808
985.358824	0.996295
985.655543	0.994957
985.952224	0.996849
986.248869	0.996641
986.545478	0.998090
986.842050	0.998672
987.138586	0.995923
987.435086	0.998683
987.731549	0.999160
988.027975	0.997710
988.324366	0.997977
988.620719	0.997978
988.917037	0.997492
989.213318	0.998114
989.509563	0.998536
989.805772	0.998146
990.101944	0.999298
990.398080	0.998496
990.694180	0.997182
990.990244	0.998406
991.286271	0.998106
991.582262	0.999055
991.878217	0.998134
992.174136	0.999779
992.470019	1.000422
992.765865	0.998846
993.061676	0.998969
993.357450	0.998665
993.653188	0.997974
993.948890	0.998198
994.244556	0.998917
994.540186	0.997715
994.835780	0.996765
995.131337	0.997769
995.426859	0.996991
995.722345	0.998097
996.017795	0.996900
996.313208	0.996593
996.608586	0.996991
996.903928	0.997360
997.199234	0.996572
997.494504	0.997121
997.789738	0.996496
998.084936	0.997592
998.380099	0.997780
998.675225	0.998384
998.970316	0.998045
999.265371	0.999965
999.560390	0.998593
999.855373	0.998991
1000.150320	0.999144
1000.445232	0.998799
1000.740108	0.999053
1001.034948	0.998036
1001.329752	0.998609
1001.624521	0.998789
1001.919254	0.998778
1002.213951	0.997602
1002.508613	0.998787
1002.803239	0.999700
1003.097829	0.998937
1003.392384	1.000103
1003.686903	0.998847
1003.981386	0.999211
1004.275834	1.001336
1004.570246	0.998758
1004.864623	0.999584
1005.158964	1.000141
1005.453270	0.998716
1005.747540	0.998721
1006.041775	0.998743
1006.335974	1.000419
1006.630138	0.999303
1006.924266	1.000109
1007.218359	0.999537
1007.512416	0.999787
1007.806438	0.998958
1008.100425	0.999931
1008.394376	0.999662
1008.688292	0.999664
1008.982172	1.000605
1009.276017	0.999815
1009.569827	0.999865
1009.863602	0.999274
1010.157341	0.999332
1010.451045	0.999353
1010.744714	0.999275
1011.038347	0.999567
1011.331945	0.998741
1011.625508	0.998982
1011.919036	0.998655
1012.212528	0.998954
1012.505986	0.999482
1012.799408	0.999605
1013.092795	1.000124
1013.386147	0.999827
1013.679464	0.999557
1013.972745	0.998999
1014.265992	0.998439
1014.559204	0.999305
1014.852380	0.999582
1015.145521	1.000078
1015.438628	0.999688
1015.731699	0.999875
1016.024736	0.999190
1016.317737	0.998994
1016.610703	0.999334
1016.903635	1.000505
1017.196531	0.999780
1017.489393	1.000040
1017.782219	0.999391
1018.075011	0.999146
1018.367768	0.999816
1018.660490	1.000410
1018.953177	1.000410
1019.245829	1.000410
