Dividing Wavelength (nm)	Counts (n)	Blue Motor Position (mm): 0.000000	Red Motor Position (mm): 20.700000	
326.493990	1.001104
326.888308	1.001104
327.282561	1.001104
327.676750	0.999572
328.070874	1.000084
328.464933	1.000650
328.858929	0.999857
329.252859	0.999752
329.646726	1.000107
330.040528	1.001177
330.434265	0.999316
330.827938	1.000896
331.221547	1.000969
331.615091	0.999719
332.008571	1.001531
332.401986	1.000377
332.795338	0.999910
333.188625	0.999126
333.581847	1.001191
333.975006	0.999319
334.368100	0.999577
334.761129	0.999770
335.154095	1.000116
335.546996	0.997609
335.939833	0.993315
336.332606	0.993829
336.725315	0.995280
337.117960	0.995571
337.510540	0.993558
337.903056	0.995277
338.295508	0.994601
338.687896	0.994398
339.080220	0.996020
339.472480	0.994941
339.864676	0.995925
340.256807	0.994138
340.648875	0.995362
341.040879	0.994911
341.432818	0.995272
341.824694	0.994105
342.216506	0.995226
342.608253	0.994361
342.999937	0.993960
343.391557	0.993896
343.783113	0.994686
344.174605	0.994202
344.566033	0.994863
344.957397	0.993760
345.348697	0.995337
345.739934	0.993615
346.131106	0.994366
346.522215	0.993584
346.913260	0.993826
347.304241	0.994789
347.695159	0.993406
348.086012	0.992751
348.476802	0.994860
348.867528	0.995046
349.258191	0.993682
349.648789	0.994240
350.039324	0.994736
350.429796	0.993861
350.820203	0.995893
351.210548	0.994323
351.600828	0.994690
351.991045	0.993449
352.381198	0.993483
352.771288	0.994260
353.161314	0.994702
353.551276	0.995974
353.941175	0.994323
354.331010	0.993701
354.720782	0.993839
355.110490	0.994824
355.500135	0.995054
355.889717	0.993848
356.279235	0.994349
356.668689	0.993347
357.058080	0.995139
357.447408	0.995881
357.836672	0.995378
358.225873	0.994803
358.615010	0.995162
359.004084	0.995136
359.393095	0.994490
359.782043	0.994196
360.170927	0.995382
360.559748	0.996187
360.948505	0.995238
361.337199	0.994204
361.725830	0.995439
362.114398	0.994459
362.502903	0.995174
362.891344	0.995038
363.279722	0.994098
363.668037	0.995822
364.056289	0.994699
364.444478	0.994436
364.832603	0.995183
365.220665	0.993860
365.608665	0.993023
365.996601	0.994384
366.384474	0.995356
366.772284	0.994093
367.160031	0.993810
367.547715	0.992777
367.935336	0.993233
368.322893	0.995053
368.710388	0.992972
369.097820	0.994101
369.485189	0.994598
369.872495	0.993798
370.259738	0.992615
370.646918	0.994757
371.034035	0.994132
371.421090	0.994637
371.808081	0.993554
372.195010	0.993726
372.581875	0.995317
372.968678	0.994667
373.355418	0.995290
373.742096	0.994506
374.128710	0.996000
374.515262	0.994957
374.901751	0.995428
375.288177	0.995205
375.674540	0.995595
376.060841	0.994588
376.447079	0.996176
376.833254	0.994833
377.219367	0.995179
377.605417	0.996285
377.991404	0.995482
378.377329	0.994090
378.763191	0.994406
379.148991	0.995455
379.534727	0.995521
379.920402	0.995405
380.306013	0.994696
380.691563	0.995638
381.077049	0.993634
381.462474	0.995154
381.847835	0.995447
382.233134	0.995859
382.618371	0.996508
383.003545	0.995883
383.388657	0.995195
383.773706	0.996347
384.158693	0.994851
384.543618	0.995675
384.928480	0.994912
385.313280	0.994949
385.698017	0.995081
386.082692	0.996443
386.467305	0.996925
386.851856	0.996180
387.236344	0.994652
387.620770	0.995282
388.005133	0.995534
388.389435	0.996110
388.773674	0.996075
389.157851	0.995711
389.541965	0.995117
389.926018	0.994533
390.310008	0.997677
390.693936	0.995567
391.077802	0.995627
391.461606	0.995878
391.845348	0.996169
392.229027	0.996294
392.612645	0.995591
392.996200	0.996554
393.379694	0.995869
393.763125	0.996315
394.146494	0.996065
394.529801	0.995827
394.913047	0.996886
395.296230	0.996803
395.679351	0.995620
396.062410	0.995062
396.445408	0.995964
396.828343	0.995921
397.211217	0.995849
397.594028	0.996791
397.976778	0.996154
398.359466	0.995958
398.742092	0.995066
399.124656	0.995104
399.507158	0.995335
399.889598	0.995889
400.271977	0.995708
400.654294	0.995348
401.036549	0.997089
401.418742	0.995891
401.800874	0.994348
402.182944	0.995083
402.564952	0.994856
402.946898	0.996670
403.328783	0.995879
403.710606	0.995456
404.092367	0.995103
404.474067	0.995742
404.855705	0.995110
405.237282	0.995863
405.618797	0.995342
406.000250	0.995165
406.381642	0.995074
406.762972	0.995693
407.144240	0.995926
407.525447	0.995281
407.906593	0.994987
408.287677	0.995003
408.668700	0.995418
409.049661	0.993780
409.430560	0.994738
409.811399	0.994232
410.192176	0.994669
410.572891	0.994273
410.953545	0.993716
411.334138	0.993415
411.714669	0.993991
412.095139	0.992370
412.475547	0.993206
412.855894	0.992495
413.236180	0.992099
413.616405	0.991611
413.996568	0.991168
414.376670	0.989552
414.756711	0.988308
415.136691	0.987592
415.516609	0.985951
415.896466	0.984163
416.276262	0.982342
416.655997	0.982353
417.035670	0.978960
417.415283	0.976956
417.794834	0.974798
418.174324	0.972729
418.553753	0.970361
418.933121	0.966246
419.312428	0.963380
419.691674	0.961330
420.070859	0.957621
420.449983	0.954297
420.829045	0.949781
421.208047	0.948154
421.586988	0.943693
421.965867	0.938045
422.344686	0.932019
422.723444	0.928513
423.102141	0.926695
423.480777	0.918242
423.859352	0.915467
424.237866	0.905542
424.616319	0.901440
424.994712	0.894123
425.373044	0.890296
425.751314	0.880978
426.129524	0.877438
426.507673	0.867045
426.885762	0.860565
427.263789	0.853073
427.641756	0.849852
428.019662	0.838896
428.397508	0.830829
428.775292	0.823589
429.153016	0.813271
429.530679	0.808157
429.908282	0.797405
430.285824	0.792816
430.663305	0.775412
431.040726	0.775262
431.418086	0.769116
431.795385	0.755718
432.172624	0.746598
432.549802	0.737654
432.926920	0.728830
433.303977	0.720055
433.680974	0.710132
434.057910	0.699602
434.434786	0.691455
434.811601	0.683774
435.188355	0.665721
435.565050	0.663006
435.941683	0.655447
436.318257	0.636783
436.694770	0.628280
437.071222	0.619261
437.447614	0.613759
437.823946	0.611126
438.200218	0.595423
438.576429	0.594676
438.952580	0.581298
439.328670	0.571720
439.704700	0.570264
440.080670	0.564352
440.456580	0.541505
440.832429	0.540732
441.208218	0.543388
441.583947	0.528355
441.959616	0.522873
442.335224	0.520623
442.710773	0.506921
443.086261	0.499639
443.461689	0.507057
443.837057	0.492180
444.212365	0.478916
444.587612	0.480638
444.962800	0.466131
445.337927	0.464065
445.712995	0.483681
446.088002	0.445114
446.462949	0.451160
446.837837	0.451628
447.212664	0.438484
447.587431	0.427125
447.962139	0.396295
448.336786	0.355552
448.711374	0.362737
449.085901	0.401096
449.460369	0.402744
449.834776	0.403494
450.209124	0.381629
450.583412	0.372750
450.957640	0.364721
451.331808	0.373489
451.705917	0.395155
452.079965	0.397425
452.453954	0.384952
452.827883	0.390732
453.201752	0.384117
453.575562	0.394645
453.949311	0.382468
454.323001	0.387848
454.696632	0.382964
455.070202	0.375052
455.443713	0.366001
455.817164	0.361196
456.190556	0.356268
456.563888	0.352436
456.937160	0.349843
457.310373	0.366122
457.683526	0.364337
458.056619	0.370385
458.429653	0.371057
458.802628	0.373356
459.175542	0.367787
459.548398	0.350591
459.921194	0.342856
460.293930	0.342398
460.666607	0.320248
461.039224	0.308326
461.411782	0.304375
461.784280	0.303259
462.156719	0.307211
462.529099	0.311409
462.901419	0.327444
463.273680	0.331411
463.645882	0.331241
464.018024	0.336602
464.390106	0.329570
464.762130	0.314465
465.134094	0.297425
465.505999	0.266877
465.877845	0.237178
466.249631	0.224323
466.621358	0.231796
466.993026	0.245642
467.364634	0.251547
467.736184	0.260538
468.107674	0.268957
468.479105	0.268247
468.850477	0.274897
469.221790	0.281306
469.593043	0.291590
469.964238	0.296691
470.335373	0.295543
470.706449	0.293837
471.077467	0.294532
471.448425	0.257233
471.819324	0.232727
472.190164	0.231968
472.560945	0.260782
472.931667	0.283103
473.302330	0.286926
473.672934	0.298937
474.043479	0.286992
474.413965	0.288951
474.784393	0.292179
475.154761	0.287275
475.525070	0.284399
475.895321	0.290113
476.265513	0.284340
476.635645	0.279215
477.005719	0.279346
477.375734	0.276486
477.745691	0.270219
478.115588	0.266197
478.485427	0.259920
478.855207	0.246651
479.224928	0.229428
479.594591	0.217465
479.964194	0.220841
480.333739	0.221727
480.703226	0.223462
481.072653	0.222095
481.442022	0.217560
481.811333	0.214005
482.180584	0.217578
482.549777	0.222661
482.918912	0.226481
483.287988	0.225969
483.657005	0.225594
484.025964	0.231993
484.394864	0.229260
484.763706	0.229960
485.132489	0.234928
485.501213	0.235602
485.869879	0.233938
486.238487	0.237299
486.607036	0.234921
486.975527	0.239711
487.343959	0.235574
487.712333	0.234466
488.080648	0.236121
488.448905	0.235261
488.817104	0.236501
489.185244	0.231201
489.553326	0.227883
489.921350	0.217806
490.289315	0.200446
490.657222	0.195342
491.025070	0.196531
491.392861	0.198458
491.760593	0.204455
492.128267	0.209860
492.495883	0.215275
492.863440	0.221601
493.230939	0.227995
493.598380	0.229079
493.965763	0.231094
494.333088	0.233574
494.700354	0.234949
495.067563	0.233872
495.434713	0.237343
495.801805	0.235214
496.168839	0.236662
496.535815	0.237943
496.902733	0.237692
497.269593	0.239347
497.636395	0.237208
498.003139	0.237406
498.369825	0.240413
498.736453	0.236952
499.103023	0.238207
499.469535	0.237420
499.835989	0.238005
500.202385	0.238951
500.568723	0.242355
500.935003	0.237149
501.301226	0.241652
501.667390	0.235982
502.033497	0.233954
502.399546	0.236981
502.765537	0.238545
503.131470	0.237075
503.497345	0.233382
503.863163	0.242126
504.228923	0.234976
504.594625	0.233806
504.960269	0.239006
505.325856	0.234665
505.691385	0.238439
506.056856	0.235369
506.422270	0.235064
506.787625	0.237367
507.152924	0.234601
507.518164	0.235478
507.883347	0.237123
508.248472	0.238520
508.613540	0.234234
508.978550	0.236396
509.343503	0.236645
509.708398	0.234401
510.073236	0.232063
510.438016	0.231976
510.802738	0.232998
511.167403	0.232021
511.532010	0.233854
511.896561	0.229307
512.261053	0.228131
512.625488	0.230405
512.989866	0.230669
513.354186	0.230822
513.718449	0.232929
514.082655	0.228892
514.446803	0.231289
514.810894	0.228903
515.174927	0.231741
515.538904	0.231064
515.902822	0.227897
516.266684	0.230563
516.630488	0.231681
516.994235	0.230329
517.357925	0.229103
517.721558	0.227636
518.085133	0.227020
518.448651	0.227046
518.812112	0.229300
519.175516	0.228739
519.538863	0.226401
519.902152	0.228173
520.265385	0.224815
520.628560	0.226870
520.991678	0.227272
521.354739	0.226076
521.717743	0.227112
522.080690	0.227679
522.443580	0.225003
522.806413	0.225973
523.169189	0.225141
523.531908	0.224186
523.894569	0.227671
524.257174	0.228016
524.619722	0.225556
524.982213	0.226544
525.344647	0.225384
525.707025	0.226347
526.069345	0.224460
526.431608	0.226319
526.793815	0.224249
527.155964	0.228287
527.518057	0.227285
527.880093	0.228261
528.242072	0.226942
528.603995	0.228850
528.965860	0.230822
529.327669	0.229345
529.689421	0.230193
530.051117	0.231155
530.412755	0.228503
530.774337	0.231046
531.135862	0.231435
531.497331	0.230698
531.858743	0.233488
532.220098	0.230515
532.581396	0.232742
532.942638	0.233304
533.303824	0.234063
533.664953	0.234115
534.026025	0.235565
534.387040	0.233740
534.747999	0.233724
535.108902	0.232406
535.469748	0.237344
535.830537	0.235348
536.191270	0.235959
536.551947	0.235267
536.912567	0.235230
537.273131	0.237222
537.633638	0.237294
537.994089	0.237490
538.354483	0.238579
538.714821	0.235711
539.075103	0.235425
539.435328	0.236236
539.795497	0.240117
540.155609	0.236612
540.515665	0.234867
540.875665	0.240665
541.235609	0.239023
541.595496	0.239014
541.955328	0.235348
542.315102	0.238247
542.674821	0.239270
543.034483	0.239057
543.394090	0.239146
543.753640	0.240837
544.113134	0.235585
544.472571	0.239172
544.831953	0.235912
545.191278	0.240165
545.550548	0.239630
545.909761	0.236634
546.268918	0.236971
546.628019	0.235270
546.987064	0.238240
547.346053	0.239944
547.704986	0.237727
548.063863	0.238177
548.422684	0.238452
548.781449	0.240044
549.140158	0.237833
549.498811	0.240722
549.857408	0.243785
550.215949	0.238648
550.574434	0.241456
550.932864	0.239544
551.291237	0.238382
551.649555	0.239678
552.007817	0.239569
552.366022	0.240255
552.724173	0.240339
553.082267	0.240819
553.440305	0.237395
553.798288	0.241918
554.156215	0.238577
554.514086	0.239581
554.871902	0.242336
555.229661	0.241584
555.587365	0.242157
555.945014	0.244736
556.302606	0.241918
556.660143	0.244194
557.017625	0.240494
557.375050	0.243068
557.732421	0.239869
558.089735	0.241806
558.446994	0.242113
558.804197	0.241173
559.161345	0.241141
559.518437	0.244703
559.875474	0.242371
560.232455	0.241529
560.589381	0.242823
560.946251	0.242896
561.303065	0.240516
561.659825	0.242061
562.016528	0.243670
562.373177	0.246593
562.729770	0.243652
563.086307	0.245632
563.442789	0.243387
563.799216	0.246299
564.155587	0.244950
564.511904	0.246270
564.868164	0.246037
565.224370	0.246163
565.580520	0.247818
565.936615	0.247968
566.292654	0.250742
566.648638	0.247886
567.004567	0.248643
567.360441	0.249237
567.716260	0.251307
568.072023	0.249022
568.427732	0.249693
568.783385	0.252202
569.138982	0.250488
569.494525	0.249903
569.850013	0.253089
570.205445	0.251364
570.560823	0.253950
570.916145	0.255839
571.271412	0.254104
571.626625	0.255649
571.981782	0.255616
572.336884	0.256578
572.691931	0.256667
573.046923	0.257653
573.401860	0.259036
573.756743	0.260495
574.111570	0.259681
574.466342	0.260076
574.821059	0.258994
575.175722	0.261924
575.530330	0.261650
575.884882	0.261839
576.239380	0.263682
576.593823	0.264585
576.948211	0.264070
577.302544	0.266913
577.656823	0.266843
578.011047	0.267174
578.365216	0.267744
578.719330	0.269588
579.073389	0.269612
579.427394	0.270610
579.781344	0.271363
580.135239	0.272892
580.489080	0.272742
580.842866	0.275365
581.196597	0.275612
581.550273	0.273969
581.903895	0.275131
582.257463	0.273273
582.610975	0.276766
582.964434	0.275942
583.317837	0.278239
583.671186	0.278722
584.024481	0.278737
584.377721	0.281207
584.730906	0.281626
585.084037	0.281081
585.437113	0.283115
585.790135	0.282169
586.143103	0.285317
586.496016	0.286377
586.848874	0.283855
587.201679	0.284593
587.554428	0.287932
587.907124	0.286615
588.259765	0.287232
588.612352	0.287658
588.964884	0.291508
589.317362	0.291715
589.669786	0.291453
590.022155	0.289785
590.374470	0.288945
590.726731	0.291652
591.078937	0.295529
591.431090	0.292500
591.783188	0.296565
592.135232	0.296740
592.487222	0.296825
592.839157	0.294991
593.191038	0.297371
593.542866	0.299036
593.894639	0.302995
594.246358	0.300949
594.598022	0.300055
594.949633	0.303826
595.301190	0.304645
595.652692	0.303848
596.004141	0.299801
596.355535	0.307866
596.706876	0.308190
597.058162	0.310968
597.409395	0.307858
597.760573	0.305854
598.111698	0.308671
598.462768	0.309530
598.813785	0.310797
599.164748	0.312372
599.515657	0.312467
599.866511	0.315692
600.217312	0.311190
600.568060	0.316567
600.918753	0.312628
601.269392	0.313341
601.619978	0.316789
601.970510	0.314515
602.320988	0.314419
602.671412	0.312542
603.021783	0.314994
603.372100	0.316033
603.722363	0.315967
604.072572	0.316425
604.422728	0.316398
604.772830	0.318496
605.122878	0.318144
605.472872	0.318953
605.822813	0.316924
606.172701	0.319393
606.522534	0.317187
606.872314	0.317165
607.222041	0.318637
607.571714	0.316179
607.921333	0.317953
608.270899	0.317327
608.620411	0.313830
608.969870	0.317917
609.319276	0.318048
609.668627	0.318076
610.017926	0.316204
610.367171	0.315202
610.716362	0.315642
611.065500	0.316057
611.414585	0.314448
611.763616	0.315084
612.112594	0.315836
612.461518	0.315431
612.810389	0.312678
613.159207	0.315150
613.507971	0.317035
613.856682	0.312712
614.205340	0.314274
614.553945	0.311139
614.902496	0.314816
615.250994	0.313059
615.599439	0.313953
615.947830	0.313032
616.296169	0.314078
616.644454	0.313668
616.992686	0.313935
617.340864	0.311672
617.688990	0.315109
618.037063	0.311759
618.385082	0.314041
618.733048	0.310845
619.080961	0.312875
619.428821	0.311985
619.776628	0.311826
620.124382	0.313785
620.472083	0.313685
620.819731	0.313659
621.167326	0.317448
621.514868	0.316883
621.862357	0.321350
622.209793	0.321105
622.557176	0.322887
622.904506	0.324113
623.251783	0.326684
623.599007	0.328559
623.946179	0.328210
624.293297	0.330318
624.640363	0.334036
624.987376	0.334317
625.334336	0.337420
625.681243	0.339785
626.028097	0.340122
626.374899	0.341197
626.721647	0.341386
627.068343	0.344635
627.414987	0.345609
627.761577	0.347695
628.108115	0.346099
628.454600	0.351310
628.801032	0.348540
629.147412	0.350786
629.493739	0.351049
629.840014	0.354236
630.186236	0.351369
630.532405	0.357432
630.878521	0.354516
631.224585	0.356715
631.570597	0.360381
631.916556	0.358574
632.262462	0.359030
632.608316	0.361257
632.954117	0.361533
633.299866	0.362552
633.645562	0.362912
633.991206	0.367605
634.336797	0.370087
634.682336	0.372718
635.027823	0.373808
635.373257	0.374507
635.718639	0.378097
636.063968	0.377361
636.409245	0.383225
636.754470	0.383954
637.099642	0.386265
637.444762	0.389584
637.789829	0.388665
638.134845	0.392141
638.479808	0.393106
638.824719	0.392857
639.169577	0.397195
639.514383	0.395597
639.859137	0.400181
640.203839	0.400199
640.548489	0.400026
640.893086	0.401393
641.237632	0.403188
641.582125	0.401744
641.926566	0.403345
642.270955	0.403563
642.615292	0.403676
642.959576	0.402716
643.303809	0.403349
643.647990	0.402746
643.992118	0.403041
644.336195	0.407342
644.680219	0.404722
645.024192	0.405922
645.368112	0.400034
645.711981	0.398753
646.055797	0.393801
646.399562	0.396540
646.743274	0.388754
647.086935	0.386155
647.430544	0.386161
647.774101	0.385233
648.117606	0.385015
648.461059	0.385095
648.804460	0.387522
649.147810	0.392836
649.491108	0.394690
649.834354	0.395477
650.177548	0.401645
650.520690	0.406531
650.863781	0.407878
651.206820	0.406857
651.549807	0.411922
651.892742	0.416218
652.235626	0.415165
652.578458	0.416198
652.921238	0.422119
653.263967	0.420499
653.606644	0.423973
653.949269	0.423707
654.291843	0.427652
654.634365	0.424677
654.976836	0.427476
655.319255	0.427325
655.661622	0.429449
656.003938	0.429571
656.346203	0.432437
656.688416	0.430313
657.030577	0.433583
657.372687	0.435938
657.714746	0.436407
658.056753	0.433428
658.398708	0.436816
658.740612	0.438334
659.082465	0.434442
659.424266	0.434876
659.766016	0.434388
660.107715	0.437004
660.449362	0.436050
660.790958	0.436843
661.132503	0.437567
661.473996	0.435049
661.815438	0.435689
662.156829	0.435559
662.498168	0.436803
662.839456	0.438187
663.180693	0.435860
663.521879	0.435915
663.863013	0.436810
664.204097	0.435356
664.545129	0.432102
664.886110	0.432422
665.227040	0.429989
665.567918	0.432309
665.908746	0.430342
666.249522	0.429552
666.590248	0.431385
666.930922	0.428921
667.271545	0.427995
667.612118	0.428464
667.952639	0.429744
668.293109	0.428511
668.633528	0.431502
668.973896	0.431158
669.314213	0.431861
669.654480	0.433238
669.994695	0.433652
670.334859	0.434428
670.674973	0.434470
671.015035	0.434739
671.355047	0.434601
671.695008	0.435968
672.034918	0.437905
672.374777	0.437073
672.714585	0.438312
673.054342	0.438258
673.394049	0.438449
673.733705	0.436099
674.073310	0.437050
674.412864	0.440124
674.752368	0.440316
675.091820	0.440360
675.431223	0.444974
675.770574	0.444849
676.109875	0.448161
676.449125	0.447839
676.788324	0.450788
677.127473	0.456167
677.466571	0.454987
677.805619	0.456912
678.144616	0.458118
678.483562	0.459504
678.822458	0.462717
679.161303	0.463662
679.500098	0.463877
679.838842	0.465377
680.177535	0.464716
680.516179	0.463329
680.854771	0.462528
681.193314	0.456143
681.531805	0.446812
681.870247	0.435670
682.208638	0.428149
682.546978	0.427441
682.885268	0.429261
683.223508	0.435104
683.561697	0.438890
683.899836	0.442057
684.237925	0.444697
684.575963	0.447808
684.913951	0.450588
685.251889	0.446540
685.589776	0.448835
685.927614	0.450117
686.265401	0.445425
686.603137	0.446372
686.940824	0.440422
687.278460	0.438755
687.616046	0.438448
687.953582	0.432872
688.291068	0.434394
688.628504	0.430054
688.965889	0.432764
689.303224	0.436347
689.640510	0.440167
689.977745	0.446112
690.314930	0.454616
690.652065	0.458570
690.989150	0.466571
691.326185	0.472762
691.663170	0.477294
692.000105	0.484520
692.336990	0.491713
692.673825	0.493923
693.010610	0.500769
693.347345	0.506226
693.684030	0.507851
694.020665	0.512025
694.357251	0.521578
694.693786	0.520820
695.030272	0.525698
695.366707	0.528690
695.703093	0.532320
696.039429	0.529881
696.375716	0.531394
696.711952	0.534125
697.048139	0.536509
697.384276	0.538349
697.720363	0.536068
698.056400	0.536007
698.392388	0.541196
698.728326	0.543995
699.064214	0.547101
699.400053	0.547552
699.735842	0.550991
700.071581	0.553848
700.407270	0.557034
700.742910	0.559388
701.078501	0.565396
701.414042	0.566074
701.749533	0.569389
702.084974	0.577947
702.420366	0.570707
702.755709	0.577941
703.091002	0.586020
703.426246	0.579282
703.761440	0.585237
704.096584	0.590239
704.431679	0.586805
704.766725	0.589186
705.101721	0.590247
705.436668	0.587081
705.771565	0.593493
706.106413	0.590431
706.441212	0.586145
706.775961	0.584681
707.110661	0.586865
707.445311	0.583693
707.779913	0.580708
708.114465	0.579672
708.448967	0.576051
708.783421	0.567631
709.117825	0.562781
709.452180	0.562693
709.786485	0.556559
710.120742	0.546257
710.454949	0.548415
710.789107	0.540735
711.123216	0.531132
711.457275	0.532970
711.791286	0.524346
712.125247	0.522989
712.459159	0.533668
712.793023	0.526555
713.126837	0.530299
713.460602	0.530696
713.794318	0.540158
714.127985	0.539244
714.461602	0.548600
714.795171	0.552045
715.128691	0.560547
715.462162	0.567895
715.795584	0.573167
716.128957	0.575979
716.462281	0.582621
716.795556	0.586188
717.128782	0.591258
717.461960	0.600744
717.795088	0.599168
718.128167	0.605806
718.461198	0.614314
718.794180	0.615332
719.127113	0.618468
719.459997	0.620684
719.792833	0.627368
720.125619	0.628340
720.458357	0.634476
720.791046	0.633934
721.123686	0.637718
721.456278	0.644611
721.788821	0.641876
722.121315	0.645633
722.453761	0.649991
722.786158	0.648113
723.118506	0.644219
723.450805	0.652497
723.783056	0.648015
724.115259	0.645427
724.447412	0.645243
724.779518	0.647249
725.111574	0.645429
725.443582	0.640730
725.775542	0.642950
726.107453	0.635349
726.439315	0.635324
726.771129	0.633763
727.102895	0.627008
727.434612	0.619774
727.766281	0.618348
728.097901	0.617400
728.429473	0.617255
728.760996	0.615464
729.092471	0.615322
729.423897	0.618557
729.755276	0.618346
730.086606	0.618818
730.417887	0.613276
730.749120	0.603902
731.080305	0.594640
731.411442	0.590727
731.742530	0.595552
732.073570	0.595009
732.404562	0.587398
732.735506	0.588178
733.066401	0.593400
733.397249	0.603201
733.728048	0.614326
734.058798	0.626827
734.389501	0.636086
734.720156	0.646147
735.050762	0.654188
735.381320	0.655491
735.711831	0.664857
736.042293	0.670026
736.372707	0.665344
736.703073	0.670265
737.033391	0.672382
737.363661	0.668601
737.693883	0.663988
738.024056	0.662976
738.354182	0.663436
738.684260	0.652751
739.014290	0.649568
739.344272	0.649921
739.674207	0.643793
740.004093	0.642471
740.333931	0.642920
740.663722	0.643509
740.993464	0.643945
741.323159	0.647697
741.652806	0.652204
741.982405	0.657118
742.311956	0.661370
742.641460	0.664368
742.970915	0.667722
743.300323	0.675136
743.629683	0.681364
743.958996	0.683054
744.288260	0.688261
744.617477	0.694148
744.946647	0.695206
745.275768	0.700409
745.604842	0.700342
745.933869	0.711115
746.262847	0.711056
746.591778	0.705295
746.920662	0.710854
747.249498	0.717948
747.578286	0.708941
747.907027	0.704623
748.235720	0.705507
748.564365	0.700340
748.892963	0.700356
749.221514	0.702901
749.550017	0.709096
749.878473	0.708111
750.206881	0.714396
750.535242	0.715332
750.863555	0.715411
751.191821	0.716417
751.520039	0.719435
751.848210	0.725093
752.176334	0.717281
752.504411	0.717303
752.832440	0.723654
753.160421	0.728718
753.488356	0.726789
753.816243	0.724281
754.144082	0.732455
754.471875	0.736184
754.799620	0.731295
755.127318	0.732486
755.454969	0.732656
755.782572	0.732047
756.110129	0.736830
756.437638	0.739657
756.765100	0.736185
757.092515	0.734480
757.419882	0.733373
757.747203	0.738167
758.074477	0.738220
758.401703	0.734823
758.728882	0.729465
759.056014	0.728418
759.383099	0.728414
759.710138	0.729280
760.037129	0.726007
760.364073	0.718727
760.690970	0.721862
761.017820	0.727667
761.344623	0.722931
761.671379	0.713756
761.998088	0.702316
762.324751	0.679356
762.651366	0.637304
762.977935	0.571691
763.304456	0.519596
763.630931	0.509290
763.957359	0.548462
764.283740	0.592838
764.610074	0.620532
764.936362	0.651357
765.262602	0.677414
765.588796	0.698596
765.914943	0.717577
766.241044	0.735542
766.567097	0.741260
766.893104	0.751506
767.219064	0.757665
767.544978	0.764123
767.870845	0.778150
768.196665	0.781214
768.522438	0.779028
768.848165	0.781066
769.173846	0.790355
769.499479	0.794125
769.825066	0.797283
770.150607	0.802315
770.476101	0.798149
770.801548	0.799387
771.126949	0.810344
771.452303	0.814581
771.777611	0.812872
772.102872	0.813191
772.428087	0.817926
772.753256	0.821427
773.078378	0.823154
773.403453	0.832742
773.728482	0.835802
774.053465	0.830250
774.378401	0.833312
774.703291	0.841244
775.028135	0.842496
775.352932	0.842744
775.677683	0.845769
776.002388	0.846410
776.327046	0.846196
776.651658	0.849941
776.976224	0.852599
777.300743	0.853959
777.625216	0.855208
777.949643	0.856550
778.274024	0.856908
778.598359	0.859132
778.922647	0.856349
779.246889	0.857802
779.571086	0.862117
779.895236	0.864552
780.219339	0.860883
780.543397	0.857610
780.867409	0.856927
781.191374	0.859120
781.515294	0.859087
781.839167	0.859131
782.162995	0.862383
782.486776	0.859053
782.810511	0.860653
783.134201	0.864173
783.457844	0.861044
783.781441	0.863584
784.104993	0.870158
784.428498	0.869707
784.751958	0.866070
785.075372	0.870277
785.398739	0.872119
785.722061	0.868680
786.045337	0.864705
786.368568	0.869103
786.691752	0.871899
787.014891	0.857532
787.337983	0.849196
787.661030	0.840603
787.984031	0.823511
788.306987	0.810693
788.629897	0.812474
788.952760	0.816175
789.275579	0.820738
789.598351	0.836574
789.921078	0.849022
790.243759	0.851662
790.566395	0.857322
790.888984	0.863770
791.211529	0.869203
791.534027	0.872301
791.856480	0.874133
792.178888	0.879554
792.501249	0.882242
792.823566	0.881857
793.145836	0.882359
793.468062	0.884565
793.790241	0.884718
794.112375	0.882799
794.434464	0.879069
794.756507	0.877587
795.078505	0.877096
795.400457	0.871452
795.722364	0.860594
796.044226	0.852917
796.366042	0.852610
796.687812	0.855812
797.009538	0.851913
797.331218	0.854400
797.652852	0.859522
797.974442	0.863385
798.295986	0.863535
798.617484	0.867071
798.938938	0.870880
799.260346	0.875687
799.581709	0.878425
799.903026	0.880071
800.224299	0.880560
800.545526	0.884396
800.866708	0.889364
801.187845	0.893324
801.508936	0.892208
801.829983	0.889984
802.150984	0.893220
802.471940	0.897875
802.792851	0.898081
803.113717	0.898307
803.434538	0.894955
803.755314	0.898318
804.076045	0.900525
804.396731	0.899607
804.717372	0.899816
805.037967	0.901981
805.358518	0.900151
805.679024	0.896028
805.999485	0.897304
806.319901	0.897741
806.640272	0.897927
806.960598	0.895686
807.280879	0.893867
807.601115	0.891772
807.921306	0.897215
808.241453	0.896671
808.561554	0.893918
808.881611	0.893626
809.201623	0.896209
809.521590	0.896329
809.841513	0.896966
810.161390	0.897653
810.481223	0.898122
810.801011	0.902038
811.120755	0.903509
811.440453	0.902329
811.760107	0.900318
812.079716	0.900067
812.399281	0.903609
812.718801	0.906191
813.038276	0.907553
813.357707	0.906752
813.677093	0.903832
813.996434	0.907453
814.315731	0.908563
814.634983	0.911012
814.954191	0.908154
815.273354	0.905038
815.592473	0.902756
815.911547	0.901662
816.230577	0.900235
816.549562	0.895803
816.868502	0.898003
817.187399	0.893235
817.506250	0.887513
817.825058	0.889967
818.143821	0.886719
818.462539	0.880785
818.781213	0.873767
819.099843	0.862198
819.418429	0.846159
819.736970	0.829641
820.055466	0.809579
820.373919	0.786106
820.692327	0.751355
821.010691	0.718025
821.329011	0.639286
821.647286	0.524816
821.965517	0.410670
822.283704	0.367965
822.601847	0.369132
822.919945	0.405057
823.237999	0.438596
823.556010	0.485252
823.873976	0.541102
824.191897	0.592239
824.509775	0.633899
824.827609	0.679859
825.145398	0.702756
825.463144	0.704849
825.780845	0.688107
826.098502	0.669373
826.416116	0.623501
826.733685	0.579558
827.051210	0.570929
827.368692	0.585985
827.686129	0.622868
828.003522	0.676202
828.320872	0.723488
828.638177	0.766893
828.955439	0.799085
829.272656	0.821991
829.589830	0.838761
829.906960	0.854228
830.224046	0.866718
830.541088	0.877183
830.858086	0.881318
831.175041	0.887802
831.491952	0.886899
831.808819	0.884012
832.125642	0.877117
832.442421	0.862181
832.759157	0.839709
833.075849	0.795065
833.392497	0.730580
833.709101	0.690301
834.025662	0.699194
834.342179	0.730794
834.658653	0.770299
834.975083	0.805987
835.291469	0.832830
835.607811	0.854873
835.924110	0.870849
836.240366	0.886839
836.556578	0.901543
836.872746	0.908420
837.188871	0.915862
837.504952	0.920077
837.820990	0.923943
838.136984	0.927162
838.452935	0.930169
838.768842	0.930153
839.084706	0.924016
839.400526	0.900179
839.716303	0.858893
840.032037	0.836229
840.347727	0.839910
840.663373	0.859206
840.978977	0.880431
841.294537	0.902482
841.610054	0.919273
841.925527	0.926493
842.240957	0.932968
842.556344	0.940437
842.871687	0.946329
843.186987	0.949988
843.502244	0.950350
843.817458	0.951832
844.132629	0.956380
844.447756	0.961666
844.762840	0.960515
845.077881	0.959881
845.392879	0.960517
845.707833	0.961844
846.022745	0.964525
846.337613	0.965219
846.652438	0.965724
846.967221	0.964711
847.281960	0.965388
847.596656	0.967927
847.911309	0.966562
848.225919	0.967286
848.540485	0.968981
848.855009	0.969035
849.169490	0.968079
849.483928	0.968857
849.798323	0.969588
850.112675	0.970999
850.426984	0.969794
850.741251	0.970162
851.055474	0.970168
851.369654	0.968047
851.683792	0.969636
851.997887	0.970559
852.311938	0.970092
852.625947	0.970932
852.939914	0.968381
853.253837	0.970151
853.567718	0.971643
853.881555	0.971186
854.195350	0.967808
854.509103	0.970261
854.822812	0.969442
855.136479	0.970579
855.450103	0.969426
855.763685	0.968921
856.077224	0.968240
856.390720	0.971125
856.704173	0.970248
857.017584	0.968692
857.330953	0.967182
857.644278	0.968262
857.957561	0.967695
858.270802	0.968039
858.584000	0.968939
858.897155	0.967418
859.210268	0.968073
859.523339	0.967793
859.836367	0.970881
860.149352	0.970652
860.462295	0.968980
860.775195	0.969943
861.088054	0.969641
861.400869	0.969895
861.713642	0.970794
862.026373	0.970563
862.339062	0.971358
862.651708	0.967462
862.964312	0.967700
863.276873	0.969584
863.589392	0.969015
863.901869	0.966775
864.214303	0.964522
864.526696	0.964700
864.839045	0.963280
865.151353	0.961269
865.463619	0.962033
865.775842	0.962019
866.088023	0.962387
866.400162	0.961766
866.712258	0.962974
867.024313	0.963359
867.336325	0.963718
867.648296	0.963688
867.960224	0.963354
868.272110	0.962362
868.583954	0.965392
868.895755	0.964310
869.207515	0.961836
869.519233	0.959278
869.830909	0.960907
870.142542	0.962320
870.454134	0.962404
870.765684	0.960532
871.077191	0.958316
871.388657	0.959444
871.700081	0.958324
872.011463	0.958690
872.322803	0.958031
872.634101	0.957382
872.945357	0.954409
873.256571	0.952940
873.567744	0.952592
873.878874	0.955461
874.189963	0.951955
874.501010	0.951738
874.812015	0.949940
875.122979	0.952202
875.433900	0.953810
875.744780	0.953869
876.055618	0.951365
876.366415	0.950469
876.677169	0.949814
876.987882	0.951512
877.298554	0.952266
877.609183	0.948238
877.919771	0.945172
878.230317	0.942918
878.540822	0.940985
878.851285	0.934626
879.161707	0.927056
879.472087	0.915439
879.782425	0.899996
880.092722	0.864727
880.402977	0.813405
880.713191	0.752498
881.023363	0.693980
881.333494	0.660439
881.643583	0.632888
881.953631	0.631285
882.263637	0.660642
882.573602	0.700405
882.883526	0.726091
883.193408	0.749826
883.503248	0.771892
883.813048	0.799721
884.122806	0.828416
884.432522	0.851065
884.742197	0.871568
885.051831	0.881636
885.361424	0.891526
885.670975	0.903273
885.980485	0.914401
886.289954	0.921008
886.599382	0.925846
886.908768	0.928546
887.218113	0.934730
887.527417	0.939305
887.836680	0.941598
888.145901	0.944261
888.455082	0.946446
888.764221	0.951209
889.073319	0.953052
889.382376	0.953888
889.691392	0.953314
890.000366	0.952685
890.309300	0.953339
890.618193	0.953390
890.927044	0.951320
891.235855	0.952093
891.544625	0.952209
891.853353	0.952469
892.162041	0.949101
892.470687	0.943135
892.779293	0.936987
893.087858	0.933971
893.396381	0.927854
893.704864	0.913332
894.013306	0.889777
894.321707	0.863123
894.630068	0.849548
894.938387	0.843716
895.246665	0.844507
895.554903	0.857513
895.863100	0.870882
896.171256	0.886460
896.479371	0.906931
896.787446	0.920254
897.095480	0.925890
897.403473	0.929295
897.711425	0.933232
898.019336	0.940550
898.327207	0.941758
898.635038	0.944942
898.942827	0.945162
899.250576	0.948088
899.558284	0.952680
899.865952	0.954589
900.173579	0.955316
900.481165	0.956795
900.788711	0.960348
901.096216	0.960529
901.403681	0.960924
901.711105	0.962826
902.018489	0.964082
902.325832	0.962576
902.633135	0.963084
902.940397	0.956685
903.247619	0.943737
903.554800	0.917548
903.861941	0.879116
904.169041	0.844471
904.476101	0.826128
904.783121	0.827483
905.090100	0.844279
905.397039	0.865268
905.703938	0.886762
906.010796	0.907075
906.317614	0.922865
906.624391	0.935589
906.931129	0.944770
907.237826	0.952258
907.544483	0.960434
907.851099	0.963629
908.157675	0.967676
908.464211	0.971464
908.770707	0.972336
909.077163	0.975502
909.383578	0.975339
909.689954	0.974810
909.996289	0.976338
910.302584	0.977326
910.608839	0.979270
910.915054	0.978042
911.221229	0.978008
911.527363	0.976299
911.833458	0.977872
912.139513	0.977305
912.445527	0.975388
912.751502	0.974622
913.057436	0.973656
913.363331	0.970552
913.669186	0.966657
913.975000	0.961437
914.280775	0.954139
914.586510	0.948747
914.892205	0.935752
915.197859	0.914064
915.503475	0.887844
915.809050	0.868313
916.114585	0.862876
916.420081	0.860428
916.725536	0.855545
917.030952	0.865509
917.336328	0.877092
917.641665	0.892835
917.946961	0.908136
918.252218	0.919853
918.557435	0.929203
918.862612	0.937213
919.167750	0.942448
919.472848	0.948266
919.777906	0.953866
920.082925	0.958496
920.387904	0.962503
920.692843	0.963289
920.997743	0.963394
921.302603	0.968453
921.607423	0.968832
921.912204	0.972238
922.216946	0.973197
922.521647	0.974480
922.826310	0.975466
923.130932	0.977352
923.435516	0.978032
923.740059	0.979924
924.044564	0.979663
924.349028	0.981475
924.653454	0.982443
924.957840	0.984287
925.262186	0.982821
925.566493	0.984462
925.870761	0.985080
926.174989	0.986370
926.479178	0.987590
926.783328	0.989260
927.087438	0.989589
927.391509	0.988265
927.695541	0.989784
927.999533	0.989535
928.303486	0.990008
928.607400	0.991013
928.911275	0.989787
929.215110	0.990657
929.518906	0.991306
929.822663	0.989479
930.126381	0.991277
930.430060	0.990329
930.733699	0.991937
931.037299	0.989906
931.340861	0.991039
931.644383	0.989224
931.947866	0.990139
932.251309	0.990651
932.554714	0.991472
932.858080	0.990310
933.161407	0.990532
933.464694	0.991440
933.767943	0.989498
934.071153	0.991892
934.374323	0.992165
934.677455	0.991609
934.980548	0.992487
935.283602	0.991078
935.586617	0.991963
935.889593	0.991731
936.192530	0.990932
936.495428	0.991404
936.798287	0.991015
937.101108	0.990222
937.403890	0.990172
937.706632	0.988569
938.009336	0.987362
938.312002	0.986059
938.614628	0.984795
938.917216	0.984114
939.219765	0.981822
939.522275	0.983860
939.824747	0.983989
940.127179	0.983570
940.429573	0.984225
940.731929	0.984137
941.034246	0.984707
941.336524	0.986560
941.638763	0.986722
941.940964	0.986187
942.243126	0.987229
942.545250	0.987435
942.847335	0.989127
943.149381	0.987648
943.451389	0.988634
943.753359	0.989007
944.055290	0.991571
944.357182	0.989745
944.659036	0.988757
944.960851	0.989053
945.262628	0.989667
945.564367	0.991383
945.866067	0.990364
946.167729	0.989702
946.469352	0.990911
946.770937	0.988406
947.072484	0.990934
947.373992	0.990452
947.675462	0.990186
947.976893	0.990155
948.278286	0.990780
948.579641	0.991916
948.880958	0.991081
949.182236	0.990557
949.483476	0.990861
949.784678	0.990588
950.085841	0.991668
950.386967	0.991400
950.688054	0.990910
950.989103	0.990675
951.290114	0.989278
951.591087	0.989919
951.892021	0.990124
952.192917	0.989266
952.493776	0.987765
952.794596	0.988233
953.095378	0.987569
953.396122	0.988077
953.696828	0.988069
953.997496	0.990582
954.298126	0.990576
954.598718	0.990333
954.899272	0.991182
955.199788	0.990084
955.500266	0.991914
955.800706	0.992697
956.101108	0.993069
956.401472	0.993528
956.701798	0.994381
957.002087	0.993000
957.302337	0.993733
957.602550	0.995884
957.902724	0.995543
958.202861	0.995838
958.502960	0.995226
958.803022	0.993851
959.103045	0.995641
959.403031	0.996606
959.702979	0.996135
960.002889	0.996204
960.302762	0.995721
960.602596	0.996249
960.902393	0.994972
961.202153	0.997974
961.501875	0.997240
961.801559	0.995584
962.101205	0.997718
962.400814	0.997305
962.700385	0.996543
962.999918	0.996096
963.299414	0.996434
963.598873	0.995700
963.898293	0.996316
964.197677	0.996464
964.497022	0.996685
964.796331	0.998654
965.095601	0.997068
965.394835	0.996508
965.694030	0.997874
965.993189	0.996214
966.292309	0.996254
966.591393	0.998005
966.890439	0.998411
967.189447	0.996287
967.488419	0.996890
967.787353	0.997016
968.086249	0.996417
968.385108	0.997966
968.683930	0.997577
968.982714	0.997271
969.281462	0.997727
969.580172	0.996384
969.878844	0.996962
970.177480	0.996376
970.476078	0.998490
970.774639	0.996259
971.073162	0.997797
971.371649	0.996062
971.670098	0.996319
971.968510	0.998070
972.266885	0.995174
972.565223	0.996467
972.863524	0.996577
973.161788	0.996522
973.460014	0.997716
973.758204	0.994805
974.056356	0.996218
974.354471	0.995600
974.652550	0.995864
974.950591	0.996960
975.248595	0.995883
975.546563	0.996512
975.844493	0.997453
976.142386	0.997153
976.440243	0.996938
976.738062	0.997734
977.035845	0.998143
977.333590	0.997083
977.631299	0.996891
977.928971	0.995703
978.226606	0.996857
978.524204	0.995403
978.821765	0.998274
979.119290	0.996312
979.416777	0.996843
979.714228	0.997066
980.011642	0.996934
980.309020	0.998428
980.606360	0.997327
980.903664	0.999557
981.200931	0.997604
981.498162	0.994807
981.795356	0.994124
982.092513	0.993848
982.389633	0.994957
982.686717	0.991919
982.983764	0.991471
983.280775	0.991055
983.577749	0.991016
983.874686	0.991454
984.171587	0.991300
984.468451	0.995335
984.765279	0.994931
985.062070	0.994275
985.358824	0.994477
985.655543	0.995228
985.952224	0.995484
986.248869	0.997237
986.545478	0.996884
986.842050	0.999036
987.138586	0.995778
987.435086	0.996529
987.731549	0.997931
988.027975	0.998367
988.324366	0.997097
988.620719	0.996846
988.917037	0.996604
989.213318	0.998341
989.509563	0.998663
989.805772	0.998388
990.101944	0.998790
990.398080	0.998319
990.694180	0.997669
990.990244	0.997203
991.286271	0.998906
991.582262	0.998442
991.878217	0.998321
992.174136	0.999054
992.470019	0.998076
992.765865	0.999278
993.061676	0.998878
993.357450	0.998740
993.653188	0.997014
993.948890	0.997983
994.244556	0.997879
994.540186	0.997868
994.835780	0.996458
995.131337	0.997464
995.426859	0.997167
995.722345	0.998590
996.017795	0.996352
996.313208	0.995868
996.608586	0.996277
996.903928	0.996129
997.199234	0.995574
997.494504	0.996981
997.789738	0.996386
998.084936	0.996233
998.380099	0.997964
998.675225	0.997579
998.970316	0.998260
999.265371	0.999585
999.560390	0.998075
999.855373	0.999166
1000.150320	0.998099
1000.445232	0.998781
1000.740108	0.997988
1001.034948	0.997898
1001.329752	0.999159
1001.624521	0.999128
1001.919254	0.999635
1002.213951	0.999044
1002.508613	0.997839
1002.803239	1.000134
1003.097829	0.999446
1003.392384	0.998256
1003.686903	0.998252
1003.981386	0.998903
1004.275834	0.999407
1004.570246	0.998709
1004.864623	0.998912
1005.158964	0.999600
1005.453270	0.998069
1005.747540	0.997731
1006.041775	0.998784
1006.335974	0.999859
1006.630138	1.000213
1006.924266	0.999465
1007.218359	1.000702
1007.512416	0.999248
1007.806438	0.998883
1008.100425	0.999455
1008.394376	0.999006
1008.688292	0.999461
1008.982172	1.001019
1009.276017	0.998817
1009.569827	0.998700
1009.863602	0.999137
1010.157341	1.000033
1010.451045	0.999749
1010.744714	0.999392
1011.038347	0.999487
1011.331945	0.999426
1011.625508	0.997231
1011.919036	0.998840
1012.212528	0.998757
1012.505986	0.998059
1012.799408	0.998905
1013.092795	0.999348
1013.386147	1.000001
1013.679464	0.999186
1013.972745	0.999408
1014.265992	0.997275
1014.559204	0.999189
1014.852380	0.999828
1015.145521	0.998346
1015.438628	0.999612
1015.731699	0.998353
1016.024736	0.998825
1016.317737	0.998754
1016.610703	0.998909
1016.903635	0.999585
1017.196531	0.998882
1017.489393	0.999043
1017.782219	0.998312
1018.075011	0.999095
1018.367768	0.999233
1018.660490	0.999383
1018.953177	0.999383
1019.245829	0.999383
