Dividing Wavelength (nm)	Counts (n)	Blue Motor Position (mm): 0.000000	Red Motor Position (mm): 22.400000	
326.493990	1.000992
326.888308	1.000992
327.282561	1.000992
327.676750	0.999347
328.070874	0.998816
328.464933	0.999412
328.858929	0.998806
329.252859	1.000203
329.646726	0.998970
330.040528	0.999278
330.434265	0.999988
330.827938	1.001136
331.221547	1.000001
331.615091	1.000606
332.008571	0.999362
332.401986	1.000300
332.795338	1.000232
333.188625	0.998620
333.581847	0.999699
333.975006	0.999927
334.368100	0.999109
334.761129	0.999041
335.154095	1.000660
335.546996	0.997583
335.939833	0.993252
336.332606	0.994849
336.725315	0.994820
337.117960	0.995508
337.510540	0.994652
337.903056	0.995054
338.295508	0.992755
338.687896	0.994794
339.080220	0.993696
339.472480	0.995672
339.864676	0.994127
340.256807	0.994213
340.648875	0.995252
341.040879	0.995548
341.432818	0.994076
341.824694	0.994802
342.216506	0.994639
342.608253	0.994956
342.999937	0.993701
343.391557	0.995466
343.783113	0.994351
344.174605	0.995256
344.566033	0.995107
344.957397	0.993466
345.348697	0.993988
345.739934	0.995168
346.131106	0.993978
346.522215	0.993389
346.913260	0.994595
347.304241	0.993695
347.695159	0.994087
348.086012	0.993629
348.476802	0.993913
348.867528	0.994216
349.258191	0.994207
349.648789	0.994468
350.039324	0.993990
350.429796	0.995755
350.820203	0.993394
351.210548	0.993801
351.600828	0.993753
351.991045	0.993545
352.381198	0.992195
352.771288	0.994005
353.161314	0.993239
353.551276	0.994396
353.941175	0.993709
354.331010	0.992913
354.720782	0.994457
355.110490	0.992574
355.500135	0.994961
355.889717	0.994977
356.279235	0.993570
356.668689	0.993956
357.058080	0.993427
357.447408	0.995285
357.836672	0.994734
358.225873	0.994213
358.615010	0.994525
359.004084	0.994885
359.393095	0.994742
359.782043	0.994693
360.170927	0.996156
360.559748	0.995749
360.948505	0.994480
361.337199	0.993444
361.725830	0.994210
362.114398	0.993964
362.502903	0.995318
362.891344	0.994679
363.279722	0.993825
363.668037	0.994394
364.056289	0.993006
364.444478	0.994606
364.832603	0.994071
365.220665	0.992892
365.608665	0.993997
365.996601	0.993798
366.384474	0.994403
366.772284	0.995078
367.160031	0.993025
367.547715	0.993745
367.935336	0.994173
368.322893	0.994375
368.710388	0.993598
369.097820	0.994731
369.485189	0.993179
369.872495	0.993303
370.259738	0.992712
370.646918	0.995833
371.034035	0.994425
371.421090	0.994292
371.808081	0.993293
372.195010	0.994959
372.581875	0.994792
372.968678	0.994060
373.355418	0.994373
373.742096	0.994117
374.128710	0.995491
374.515262	0.994867
374.901751	0.994996
375.288177	0.994600
375.674540	0.995625
376.060841	0.994068
376.447079	0.994772
376.833254	0.995181
377.219367	0.994471
377.605417	0.995610
377.991404	0.994934
378.377329	0.994701
378.763191	0.993750
379.148991	0.995188
379.534727	0.994443
379.920402	0.995323
380.306013	0.995910
380.691563	0.994911
381.077049	0.994869
381.462474	0.994639
381.847835	0.995028
382.233134	0.994087
382.618371	0.995664
383.003545	0.994784
383.388657	0.994845
383.773706	0.995720
384.158693	0.994960
384.543618	0.994752
384.928480	0.995319
385.313280	0.994292
385.698017	0.996620
386.082692	0.995725
386.467305	0.996259
386.851856	0.995691
387.236344	0.994469
387.620770	0.994533
388.005133	0.996415
388.389435	0.996572
388.773674	0.995174
389.157851	0.995736
389.541965	0.996579
389.926018	0.995870
390.310008	0.996349
390.693936	0.995136
391.077802	0.995919
391.461606	0.996376
391.845348	0.995619
392.229027	0.996918
392.612645	0.996106
392.996200	0.997255
393.379694	0.995607
393.763125	0.996968
394.146494	0.996014
394.529801	0.995593
394.913047	0.996145
395.296230	0.995917
395.679351	0.996232
396.062410	0.995383
396.445408	0.996804
396.828343	0.996345
397.211217	0.996868
397.594028	0.996794
397.976778	0.995489
398.359466	0.995337
398.742092	0.995822
399.124656	0.995329
399.507158	0.995945
399.889598	0.995759
400.271977	0.995950
400.654294	0.996274
401.036549	0.996132
401.418742	0.996276
401.800874	0.994857
402.182944	0.995577
402.564952	0.994773
402.946898	0.995986
403.328783	0.996433
403.710606	0.995593
404.092367	0.996103
404.474067	0.997044
404.855705	0.995711
405.237282	0.996341
405.618797	0.995984
406.000250	0.995570
406.381642	0.996122
406.762972	0.996241
407.144240	0.997550
407.525447	0.995488
407.906593	0.996004
408.287677	0.996550
408.668700	0.996606
409.049661	0.995125
409.430560	0.995815
409.811399	0.996180
410.192176	0.995813
410.572891	0.996109
410.953545	0.996158
411.334138	0.994929
411.714669	0.995774
412.095139	0.995108
412.475547	0.996267
412.855894	0.995844
413.236180	0.995888
413.616405	0.995731
413.996568	0.996171
414.376670	0.995894
414.756711	0.995082
415.136691	0.995942
415.516609	0.995981
415.896466	0.994880
416.276262	0.994171
416.655997	0.996109
417.035670	0.994492
417.415283	0.995309
417.794834	0.995502
418.174324	0.995038
418.553753	0.995289
418.933121	0.994397
419.312428	0.993686
419.691674	0.992904
420.070859	0.994089
420.449983	0.992767
420.829045	0.992778
421.208047	0.991801
421.586988	0.991624
421.965867	0.990165
422.344686	0.990348
422.723444	0.988302
423.102141	0.986737
423.480777	0.985210
423.859352	0.983738
424.237866	0.981489
424.616319	0.979657
424.994712	0.978879
425.373044	0.977062
425.751314	0.973496
426.129524	0.971513
426.507673	0.969555
426.885762	0.967687
427.263789	0.964220
427.641756	0.962255
428.019662	0.958153
428.397508	0.954864
428.775292	0.950657
429.153016	0.947331
429.530679	0.945130
429.908282	0.940748
430.285824	0.936475
430.663305	0.930297
431.040726	0.927909
431.418086	0.924833
431.795385	0.918737
432.172624	0.912527
432.549802	0.907775
432.926920	0.902361
433.303977	0.896041
433.680974	0.891366
434.057910	0.883703
434.434786	0.878073
434.811601	0.872264
435.188355	0.862389
435.565050	0.857106
435.941683	0.850599
436.318257	0.840038
436.694770	0.831277
437.071222	0.825154
437.447614	0.818546
437.823946	0.813390
438.200218	0.802158
438.576429	0.797618
438.952580	0.786768
439.328670	0.777149
439.704700	0.772057
440.080670	0.765126
440.456580	0.747343
440.832429	0.742242
441.208218	0.739342
441.583947	0.725936
441.959616	0.717490
442.335224	0.711292
442.710773	0.698635
443.086261	0.687306
443.461689	0.688116
443.837057	0.673405
444.212365	0.659268
444.587612	0.655164
444.962800	0.640467
445.337927	0.633538
445.712995	0.641427
446.088002	0.609343
446.462949	0.608707
446.837837	0.603013
447.212664	0.589409
447.587431	0.574094
447.962139	0.546639
448.336786	0.511170
448.711374	0.511355
449.085901	0.534548
449.460369	0.529563
449.834776	0.525221
450.209124	0.502826
450.583412	0.490055
450.957640	0.479634
451.331808	0.480678
451.705917	0.492761
452.079965	0.491309
452.453954	0.475162
452.827883	0.475456
453.201752	0.466116
453.575562	0.470714
453.949311	0.455452
454.323001	0.456634
454.696632	0.448451
455.070202	0.437919
455.443713	0.426444
455.817164	0.418175
456.190556	0.410456
456.563888	0.403476
456.937160	0.397784
457.310373	0.409531
457.683526	0.405278
458.056619	0.407284
458.429653	0.404950
458.802628	0.405651
459.175542	0.397428
459.548398	0.378214
459.921194	0.369400
460.293930	0.367695
460.666607	0.344214
461.039224	0.331981
461.411782	0.325494
461.784280	0.322504
462.156719	0.324674
462.529099	0.327365
462.901419	0.340883
463.273680	0.344206
463.645882	0.342735
464.018024	0.347063
464.390106	0.338828
464.762130	0.323562
465.134094	0.306195
465.505999	0.275573
465.877845	0.245716
466.249631	0.231911
466.621358	0.238301
466.993026	0.251330
467.364634	0.257119
467.736184	0.265244
468.107674	0.273364
468.479105	0.272027
468.850477	0.278740
469.221790	0.284736
469.593043	0.295275
469.964238	0.299689
470.335373	0.298408
470.706449	0.296817
471.077467	0.297253
471.448425	0.259742
471.819324	0.235136
472.190164	0.234243
472.560945	0.262953
472.931667	0.284736
473.302330	0.288684
473.672934	0.299932
474.043479	0.288537
474.413965	0.290259
474.784393	0.293544
475.154761	0.288702
475.525070	0.286027
475.895321	0.291595
476.265513	0.285728
476.635645	0.280842
477.005719	0.280676
477.375734	0.277421
477.745691	0.270985
478.115588	0.267318
478.485427	0.260893
478.855207	0.247841
479.224928	0.230383
479.594591	0.218469
479.964194	0.221583
480.333739	0.223113
480.703226	0.224375
481.072653	0.222862
481.442022	0.218674
481.811333	0.214835
482.180584	0.218381
482.549777	0.223584
482.918912	0.226805
483.287988	0.226376
483.657005	0.226287
484.025964	0.232628
484.394864	0.229835
484.763706	0.230682
485.132489	0.235713
485.501213	0.236229
485.869879	0.234792
486.238487	0.237865
486.607036	0.235915
486.975527	0.239977
487.343959	0.236102
487.712333	0.235376
488.080648	0.236476
488.448905	0.235676
488.817104	0.237096
489.185244	0.231504
489.553326	0.228351
489.921350	0.218118
490.289315	0.200918
490.657222	0.195795
491.025070	0.197221
491.392861	0.199085
491.760593	0.204842
492.128267	0.210505
492.495883	0.215880
492.863440	0.221979
493.230939	0.228534
493.598380	0.229758
493.965763	0.231804
494.333088	0.234100
494.700354	0.235566
495.067563	0.234445
495.434713	0.238098
495.801805	0.235663
496.168839	0.237302
496.535815	0.238299
496.902733	0.238498
497.269593	0.239941
497.636395	0.237639
498.003139	0.238013
498.369825	0.241044
498.736453	0.237551
499.103023	0.238694
499.469535	0.238406
499.835989	0.238559
500.202385	0.239247
500.568723	0.242494
500.935003	0.237918
501.301226	0.241970
501.667390	0.236365
502.033497	0.234426
502.399546	0.237453
502.765537	0.239052
503.131470	0.237650
503.497345	0.233825
503.863163	0.242596
504.228923	0.235666
504.594625	0.234324
504.960269	0.239650
505.325856	0.234952
505.691385	0.238912
506.056856	0.235949
506.422270	0.235158
506.787625	0.237687
507.152924	0.235311
507.518164	0.235546
507.883347	0.237345
508.248472	0.239100
508.613540	0.234250
508.978550	0.236909
509.343503	0.236894
509.708398	0.234659
510.073236	0.232367
510.438016	0.232521
510.802738	0.233460
511.167403	0.232375
511.532010	0.234311
511.896561	0.229628
512.261053	0.228564
512.625488	0.230617
512.989866	0.230731
513.354186	0.231180
513.718449	0.233024
514.082655	0.229714
514.446803	0.231826
514.810894	0.229266
515.174927	0.231958
515.538904	0.231223
515.902822	0.228340
516.266684	0.230695
516.630488	0.232065
516.994235	0.230581
517.357925	0.229536
517.721558	0.227651
518.085133	0.227309
518.448651	0.227418
518.812112	0.229595
519.175516	0.229322
519.538863	0.226930
519.902152	0.228543
520.265385	0.225253
520.628560	0.227231
520.991678	0.227562
521.354739	0.226406
521.717743	0.227691
522.080690	0.228072
522.443580	0.225532
522.806413	0.226350
523.169189	0.225483
523.531908	0.224441
523.894569	0.228194
524.257174	0.228173
524.619722	0.225963
524.982213	0.227106
525.344647	0.225870
525.707025	0.226511
526.069345	0.224833
526.431608	0.226558
526.793815	0.224457
527.155964	0.228526
527.518057	0.227497
527.880093	0.228500
528.242072	0.227115
528.603995	0.228782
528.965860	0.230644
529.327669	0.229575
529.689421	0.230468
530.051117	0.231453
530.412755	0.229003
530.774337	0.231436
531.135862	0.231830
531.497331	0.231045
531.858743	0.234024
532.220098	0.230729
532.581396	0.233029
532.942638	0.233611
533.303824	0.234685
533.664953	0.234183
534.026025	0.235900
534.387040	0.233990
534.747999	0.233862
535.108902	0.232998
535.469748	0.238081
535.830537	0.235812
536.191270	0.236294
536.551947	0.235869
536.912567	0.235608
537.273131	0.237538
537.633638	0.237814
537.994089	0.237985
538.354483	0.239261
538.714821	0.236122
539.075103	0.236073
539.435328	0.236535
539.795497	0.240514
540.155609	0.237075
540.515665	0.235111
540.875665	0.240868
541.235609	0.239519
541.595496	0.239423
541.955328	0.235900
542.315102	0.238561
542.674821	0.239603
543.034483	0.239558
543.394090	0.239483
543.753640	0.241061
544.113134	0.236453
544.472571	0.239518
544.831953	0.236474
545.191278	0.240530
545.550548	0.240016
545.909761	0.236903
546.268918	0.237325
546.628019	0.235987
546.987064	0.238685
547.346053	0.240386
547.704986	0.238221
548.063863	0.238512
548.422684	0.238577
548.781449	0.240453
549.140158	0.238270
549.498811	0.240898
549.857408	0.244165
550.215949	0.238923
550.574434	0.241911
550.932864	0.240168
551.291237	0.238653
551.649555	0.240000
552.007817	0.239843
552.366022	0.240440
552.724173	0.240927
553.082267	0.241036
553.440305	0.238289
553.798288	0.242416
554.156215	0.238992
554.514086	0.239813
554.871902	0.242954
555.229661	0.242133
555.587365	0.242506
555.945014	0.244986
556.302606	0.242003
556.660143	0.244571
557.017625	0.240888
557.375050	0.243342
557.732421	0.240581
558.089735	0.242170
558.446994	0.242521
558.804197	0.241729
559.161345	0.241654
559.518437	0.245193
559.875474	0.242672
560.232455	0.242223
560.589381	0.243419
560.946251	0.243366
561.303065	0.240930
561.659825	0.242404
562.016528	0.243707
562.373177	0.246990
562.729770	0.244074
563.086307	0.246340
563.442789	0.243964
563.799216	0.246591
564.155587	0.245566
564.511904	0.246517
564.868164	0.246655
565.224370	0.246691
565.580520	0.248363
565.936615	0.248023
566.292654	0.251398
566.648638	0.248410
567.004567	0.249253
567.360441	0.249843
567.716260	0.251631
568.072023	0.249566
568.427732	0.250385
568.783385	0.252622
569.138982	0.250536
569.494525	0.250289
569.850013	0.253277
570.205445	0.251837
570.560823	0.254302
570.916145	0.256156
571.271412	0.254507
571.626625	0.255842
571.981782	0.256290
572.336884	0.257296
572.691931	0.256915
573.046923	0.258266
573.401860	0.259503
573.756743	0.261226
574.111570	0.259904
574.466342	0.260690
574.821059	0.259874
575.175722	0.262395
575.530330	0.262066
575.884882	0.262648
576.239380	0.264464
576.593823	0.265086
576.948211	0.264447
577.302544	0.267999
577.656823	0.267321
578.011047	0.267551
578.365216	0.268210
578.719330	0.270252
579.073389	0.269919
579.427394	0.271228
579.781344	0.272045
580.135239	0.273619
580.489080	0.272875
580.842866	0.276077
581.196597	0.276028
581.550273	0.274608
581.903895	0.275489
582.257463	0.273635
582.610975	0.277169
582.964434	0.276386
583.317837	0.278877
583.671186	0.279396
584.024481	0.279477
584.377721	0.281759
584.730906	0.282714
585.084037	0.281719
585.437113	0.283451
585.790135	0.282955
586.143103	0.285644
586.496016	0.287129
586.848874	0.284540
587.201679	0.285438
587.554428	0.288734
587.907124	0.286937
588.259765	0.287580
588.612352	0.288282
588.964884	0.292160
589.317362	0.291731
589.669786	0.291763
590.022155	0.290023
590.374470	0.289503
590.726731	0.291472
591.078937	0.296520
591.431090	0.292801
591.783188	0.297041
592.135232	0.297295
592.487222	0.297271
592.839157	0.295284
593.191038	0.297639
593.542866	0.299435
593.894639	0.303010
594.246358	0.301099
594.598022	0.300840
594.949633	0.304328
595.301190	0.305154
595.652692	0.304096
596.004141	0.300455
596.355535	0.308455
596.706876	0.309193
597.058162	0.311511
597.409395	0.308634
597.760573	0.306130
598.111698	0.309684
598.462768	0.310086
598.813785	0.311600
599.164748	0.312646
599.515657	0.312831
599.866511	0.316345
600.217312	0.311443
600.568060	0.317072
600.918753	0.313445
601.269392	0.313796
601.619978	0.316989
601.970510	0.315092
602.320988	0.315285
602.671412	0.312961
603.021783	0.314980
603.372100	0.316808
603.722363	0.316412
604.072572	0.317071
604.422728	0.317197
604.772830	0.319154
605.122878	0.318584
605.472872	0.319292
605.822813	0.317446
606.172701	0.320283
606.522534	0.317435
606.872314	0.317548
607.222041	0.318573
607.571714	0.316945
607.921333	0.318036
608.270899	0.317985
608.620411	0.314638
608.969870	0.318294
609.319276	0.318920
609.668627	0.318390
610.017926	0.317178
610.367171	0.315492
610.716362	0.316402
611.065500	0.316476
611.414585	0.315053
611.763616	0.316089
612.112594	0.316416
612.461518	0.315700
612.810389	0.313131
613.159207	0.315599
613.507971	0.317694
613.856682	0.313392
614.205340	0.314652
614.553945	0.311690
614.902496	0.315420
615.250994	0.313308
615.599439	0.314150
615.947830	0.313572
616.296169	0.314574
616.644454	0.314124
616.992686	0.314090
617.340864	0.312083
617.688990	0.315766
618.037063	0.312310
618.385082	0.314056
618.733048	0.310989
619.080961	0.313249
619.428821	0.312736
619.776628	0.312053
620.124382	0.314201
620.472083	0.314621
620.819731	0.314036
621.167326	0.317836
621.514868	0.317666
621.862357	0.321914
622.209793	0.321060
622.557176	0.323505
622.904506	0.324575
623.251783	0.326958
623.599007	0.329010
623.946179	0.328766
624.293297	0.330665
624.640363	0.334257
624.987376	0.335015
625.334336	0.337713
625.681243	0.339695
626.028097	0.340391
626.374899	0.341517
626.721647	0.341403
627.068343	0.345170
627.414987	0.345931
627.761577	0.348188
628.108115	0.346487
628.454600	0.351685
628.801032	0.348567
629.147412	0.351504
629.493739	0.351590
629.840014	0.354697
630.186236	0.352229
630.532405	0.357651
630.878521	0.354846
631.224585	0.357011
631.570597	0.360787
631.916556	0.359137
632.262462	0.359044
632.608316	0.361603
632.954117	0.362185
633.299866	0.362995
633.645562	0.363571
633.991206	0.367962
634.336797	0.370887
634.682336	0.372712
635.027823	0.374451
635.373257	0.375223
635.718639	0.378452
636.063968	0.377888
636.409245	0.384012
636.754470	0.384259
637.099642	0.386996
637.444762	0.389841
637.789829	0.388695
638.134845	0.392626
638.479808	0.393578
638.824719	0.393006
639.169577	0.396824
639.514383	0.395930
639.859137	0.400707
640.203839	0.400058
640.548489	0.400562
640.893086	0.401857
641.237632	0.403647
641.582125	0.401808
641.926566	0.403253
642.270955	0.403870
642.615292	0.404214
642.959576	0.403215
643.303809	0.403592
643.647990	0.403184
643.992118	0.404232
644.336195	0.407963
644.680219	0.405843
645.024192	0.406743
645.368112	0.400404
645.711981	0.399384
646.055797	0.394528
646.399562	0.396921
646.743274	0.388937
647.086935	0.386212
647.430544	0.386281
647.774101	0.384959
648.117606	0.384900
648.461059	0.385305
648.804460	0.387333
649.147810	0.392798
649.491108	0.394912
649.834354	0.396251
650.177548	0.401510
650.520690	0.407089
650.863781	0.407899
651.206820	0.407133
651.549807	0.412352
651.892742	0.415825
652.235626	0.415539
652.578458	0.416765
652.921238	0.422443
653.263967	0.420645
653.606644	0.424526
653.949269	0.423784
654.291843	0.428247
654.634365	0.424941
654.976836	0.427580
655.319255	0.428283
655.661622	0.429787
656.003938	0.429806
656.346203	0.432597
656.688416	0.430705
657.030577	0.433747
657.372687	0.436024
657.714746	0.436898
658.056753	0.433800
658.398708	0.437561
658.740612	0.438584
659.082465	0.434402
659.424266	0.435649
659.766016	0.435016
660.107715	0.437772
660.449362	0.436415
660.790958	0.436973
661.132503	0.437866
661.473996	0.435473
661.815438	0.436230
662.156829	0.436319
662.498168	0.437093
662.839456	0.438268
663.180693	0.436530
663.521879	0.436711
663.863013	0.437207
664.204097	0.435419
664.545129	0.432080
664.886110	0.432628
665.227040	0.430591
665.567918	0.432671
665.908746	0.431182
666.249522	0.430269
666.590248	0.431519
666.930922	0.429453
667.271545	0.428685
667.612118	0.428828
667.952639	0.430122
668.293109	0.428587
668.633528	0.431760
668.973896	0.431878
669.314213	0.432295
669.654480	0.433724
669.994695	0.434183
670.334859	0.434779
670.674973	0.435277
671.015035	0.435148
671.355047	0.435168
671.695008	0.436140
672.034918	0.437672
672.374777	0.437626
672.714585	0.438361
673.054342	0.438544
673.394049	0.438691
673.733705	0.436216
674.073310	0.437589
674.412864	0.440520
674.752368	0.440796
675.091820	0.440674
675.431223	0.445676
675.770574	0.445156
676.109875	0.448306
676.449125	0.448048
676.788324	0.450638
677.127473	0.456485
677.466571	0.455751
677.805619	0.457449
678.144616	0.458625
678.483562	0.460624
678.822458	0.462559
679.161303	0.463642
679.500098	0.464232
679.838842	0.465774
680.177535	0.465006
680.516179	0.463440
680.854771	0.462663
681.193314	0.456410
681.531805	0.447838
681.870247	0.436133
682.208638	0.428559
682.546978	0.427803
682.885268	0.429626
683.223508	0.435659
683.561697	0.439127
683.899836	0.442462
684.237925	0.445841
684.575963	0.448468
684.913951	0.450970
685.251889	0.446863
685.589776	0.449005
685.927614	0.451231
686.265401	0.445933
686.603137	0.446891
686.940824	0.440886
687.278460	0.439264
687.616046	0.438164
687.953582	0.433626
688.291068	0.435243
688.628504	0.431098
688.965889	0.432872
689.303224	0.437012
689.640510	0.440946
689.977745	0.446331
690.314930	0.454433
690.652065	0.459350
690.989150	0.466389
691.326185	0.472423
691.663170	0.477616
692.000105	0.484299
692.336990	0.491306
692.673825	0.494531
693.010610	0.500908
693.347345	0.506765
693.684030	0.507625
694.020665	0.512431
694.357251	0.520924
694.693786	0.521083
695.030272	0.525037
695.366707	0.528726
695.703093	0.532179
696.039429	0.530257
696.375716	0.531654
696.711952	0.534525
697.048139	0.536047
697.384276	0.538470
697.720363	0.536418
698.056400	0.535490
698.392388	0.541093
698.728326	0.544626
699.064214	0.547254
699.400053	0.548208
699.735842	0.551159
700.071581	0.554303
700.407270	0.557233
700.742910	0.559567
701.078501	0.566079
701.414042	0.566421
701.749533	0.569738
702.084974	0.578032
702.420366	0.571170
702.755709	0.578492
703.091002	0.585759
703.426246	0.579198
703.761440	0.585023
704.096584	0.590168
704.431679	0.587273
704.766725	0.589757
705.101721	0.590404
705.436668	0.587124
705.771565	0.594139
706.106413	0.590312
706.441212	0.585394
706.775961	0.584675
707.110661	0.587737
707.445311	0.584347
707.779913	0.580639
708.114465	0.579265
708.448967	0.576291
708.783421	0.568231
709.117825	0.562492
709.452180	0.563101
709.786485	0.557087
710.120742	0.546728
710.454949	0.549327
710.789107	0.540825
711.123216	0.531904
711.457275	0.533568
711.791286	0.524189
712.125247	0.523738
712.459159	0.533832
712.793023	0.526969
713.126837	0.530418
713.460602	0.531458
713.794318	0.540418
714.127985	0.538616
714.461602	0.549692
714.795171	0.552146
715.128691	0.560728
715.462162	0.567887
715.795584	0.573399
716.128957	0.575943
716.462281	0.582604
716.795556	0.586463
717.128782	0.590533
717.461960	0.601674
717.795088	0.599146
718.128167	0.606062
718.461198	0.614679
718.794180	0.615019
719.127113	0.617711
719.459997	0.621605
719.792833	0.627869
720.125619	0.628856
720.458357	0.634222
720.791046	0.634639
721.123686	0.637557
721.456278	0.645193
721.788821	0.642264
722.121315	0.646505
722.453761	0.650068
722.786158	0.647794
723.118506	0.644465
723.450805	0.651885
723.783056	0.648026
724.115259	0.645934
724.447412	0.645596
724.779518	0.646503
725.111574	0.645885
725.443582	0.641659
725.775542	0.642656
726.107453	0.634966
726.439315	0.635258
726.771129	0.633901
727.102895	0.627044
727.434612	0.620278
727.766281	0.617145
728.097901	0.617895
728.429473	0.616673
728.760996	0.615482
729.092471	0.615628
729.423897	0.619843
729.755276	0.618188
730.086606	0.618059
730.417887	0.613508
730.749120	0.604224
731.080305	0.594195
731.411442	0.591136
731.742530	0.596136
732.073570	0.596039
732.404562	0.587207
732.735506	0.588648
733.066401	0.593409
733.397249	0.602294
733.728048	0.613831
734.058798	0.626361
734.389501	0.637173
734.720156	0.646452
735.050762	0.654331
735.381320	0.655642
735.711831	0.664714
736.042293	0.669114
736.372707	0.664885
736.703073	0.670300
737.033391	0.672397
737.363661	0.669871
737.693883	0.664654
738.024056	0.662674
738.354182	0.664078
738.684260	0.653285
739.014290	0.649126
739.344272	0.649199
739.674207	0.643831
740.004093	0.643022
740.333931	0.643418
740.663722	0.642926
740.993464	0.644058
741.323159	0.647813
741.652806	0.652711
741.982405	0.657261
742.311956	0.661315
742.641460	0.664716
742.970915	0.668585
743.300323	0.675820
743.629683	0.681958
743.958996	0.684208
744.288260	0.687791
744.617477	0.694138
744.946647	0.695623
745.275768	0.700672
745.604842	0.701404
745.933869	0.711101
746.262847	0.711171
746.591778	0.705237
746.920662	0.710940
747.249498	0.717419
747.578286	0.708764
747.907027	0.704670
748.235720	0.705870
748.564365	0.700733
748.892963	0.700129
749.221514	0.703043
749.550017	0.708721
749.878473	0.707812
750.206881	0.714619
750.535242	0.716107
750.863555	0.716028
751.191821	0.716714
751.520039	0.719802
751.848210	0.724150
752.176334	0.717582
752.504411	0.716051
752.832440	0.723563
753.160421	0.728216
753.488356	0.727225
753.816243	0.723892
754.144082	0.732832
754.471875	0.735123
754.799620	0.731637
755.127318	0.732507
755.454969	0.733044
755.782572	0.731721
756.110129	0.737784
756.437638	0.739593
756.765100	0.735775
757.092515	0.733321
757.419882	0.732746
757.747203	0.737775
758.074477	0.737447
758.401703	0.734476
758.728882	0.730540
759.056014	0.727990
759.383099	0.727681
759.710138	0.729538
760.037129	0.726288
760.364073	0.719629
760.690970	0.722003
761.017820	0.727605
761.344623	0.722468
761.671379	0.714025
761.998088	0.702679
762.324751	0.680090
762.651366	0.638456
762.977935	0.571670
763.304456	0.519866
763.630931	0.510001
763.957359	0.548921
764.283740	0.593074
764.610074	0.620830
764.936362	0.650985
765.262602	0.677839
765.588796	0.700128
765.914943	0.717170
766.241044	0.735211
766.567097	0.741837
766.893104	0.751365
767.219064	0.757593
767.544978	0.764003
767.870845	0.776128
768.196665	0.781398
768.522438	0.779948
768.848165	0.781764
769.173846	0.790180
769.499479	0.793817
769.825066	0.797375
770.150607	0.803585
770.476101	0.797566
770.801548	0.799529
771.126949	0.810184
771.452303	0.814284
771.777611	0.813655
772.102872	0.813343
772.428087	0.817829
772.753256	0.821344
773.078378	0.822801
773.403453	0.832234
773.728482	0.835945
774.053465	0.829738
774.378401	0.834283
774.703291	0.841584
775.028135	0.840985
775.352932	0.843057
775.677683	0.846023
776.002388	0.846659
776.327046	0.845318
776.651658	0.848699
776.976224	0.852923
777.300743	0.852179
777.625216	0.855851
777.949643	0.856138
778.274024	0.858185
778.598359	0.857738
778.922647	0.856465
779.246889	0.857426
779.571086	0.862156
779.895236	0.864088
780.219339	0.860421
780.543397	0.858303
780.867409	0.856047
781.191374	0.859423
781.515294	0.859712
781.839167	0.858991
782.162995	0.862546
782.486776	0.858582
782.810511	0.860326
783.134201	0.863960
783.457844	0.861619
783.781441	0.864595
784.104993	0.870340
784.428498	0.870304
784.751958	0.867306
785.075372	0.868913
785.398739	0.872822
785.722061	0.868825
786.045337	0.864428
786.368568	0.869964
786.691752	0.871948
787.014891	0.857523
787.337983	0.848656
787.661030	0.841386
787.984031	0.823682
788.306987	0.811534
788.629897	0.812413
788.952760	0.816381
789.275579	0.821553
789.598351	0.835623
789.921078	0.849441
790.243759	0.852440
790.566395	0.855878
790.888984	0.862671
791.211529	0.868932
791.534027	0.872469
791.856480	0.873457
792.178888	0.879092
792.501249	0.881508
792.823566	0.883106
793.145836	0.882583
793.468062	0.884447
793.790241	0.884371
794.112375	0.883435
794.434464	0.877811
794.756507	0.877009
795.078505	0.877400
795.400457	0.871805
795.722364	0.860767
796.044226	0.853295
796.366042	0.852136
796.687812	0.855087
797.009538	0.851146
797.331218	0.854192
797.652852	0.859423
797.974442	0.864118
798.295986	0.863930
798.617484	0.866472
798.938938	0.870790
799.260346	0.875474
799.581709	0.877942
799.903026	0.879295
800.224299	0.880094
800.545526	0.884471
800.866708	0.887700
801.187845	0.892205
801.508936	0.891901
801.829983	0.890067
802.150984	0.892541
802.471940	0.898933
802.792851	0.896375
803.113717	0.898348
803.434538	0.895257
803.755314	0.897693
804.076045	0.899637
804.396731	0.900509
804.717372	0.899764
805.037967	0.902032
805.358518	0.898686
805.679024	0.896539
805.999485	0.896814
806.319901	0.897467
806.640272	0.898374
806.960598	0.896651
807.280879	0.894925
807.601115	0.892634
807.921306	0.895788
808.241453	0.895682
808.561554	0.893992
808.881611	0.893637
809.201623	0.896388
809.521590	0.896174
809.841513	0.896833
810.161390	0.896040
810.481223	0.897653
810.801011	0.901648
811.120755	0.903476
811.440453	0.901910
811.760107	0.900112
812.079716	0.900364
812.399281	0.903801
812.718801	0.906204
813.038276	0.907863
813.357707	0.906702
813.677093	0.903977
813.996434	0.906950
814.315731	0.908371
814.634983	0.910259
814.954191	0.907496
815.273354	0.905371
815.592473	0.901667
815.911547	0.901132
816.230577	0.898465
816.549562	0.896215
816.868502	0.897064
817.187399	0.893068
817.506250	0.887662
817.825058	0.890345
818.143821	0.885840
818.462539	0.880954
818.781213	0.873494
819.099843	0.862291
819.418429	0.847346
819.736970	0.829633
820.055466	0.810088
820.373919	0.785183
820.692327	0.751596
821.010691	0.716898
821.329011	0.640222
821.647286	0.525519
821.965517	0.411875
822.283704	0.368472
822.601847	0.370476
822.919945	0.406104
823.237999	0.439326
823.556010	0.486567
823.873976	0.542108
824.191897	0.592170
824.509775	0.634652
824.827609	0.679165
825.145398	0.702984
825.463144	0.705421
825.780845	0.687921
826.098502	0.669639
826.416116	0.624222
826.733685	0.579820
827.051210	0.570717
827.368692	0.586112
827.686129	0.623258
828.003522	0.676044
828.320872	0.723971
828.638177	0.766881
828.955439	0.799435
829.272656	0.821810
829.589830	0.839309
829.906960	0.855360
830.224046	0.866532
830.541088	0.877175
830.858086	0.881827
831.175041	0.887778
831.491952	0.886746
831.808819	0.883707
832.125642	0.876469
832.442421	0.862563
832.759157	0.840340
833.075849	0.794427
833.392497	0.730640
833.709101	0.689919
834.025662	0.699540
834.342179	0.731405
834.658653	0.770702
834.975083	0.806020
835.291469	0.831554
835.607811	0.854110
835.924110	0.870205
836.240366	0.887494
836.556578	0.901703
836.872746	0.909292
837.188871	0.914222
837.504952	0.920839
837.820990	0.923470
838.136984	0.927605
838.452935	0.931071
838.768842	0.932040
839.084706	0.924053
839.400526	0.899806
839.716303	0.859014
840.032037	0.837430
840.347727	0.840229
840.663373	0.858874
840.978977	0.879858
841.294537	0.902051
841.610054	0.918542
841.925527	0.926460
842.240957	0.933247
842.556344	0.940576
842.871687	0.945466
843.186987	0.950618
843.502244	0.950380
843.817458	0.951614
844.132629	0.955390
844.447756	0.961311
844.762840	0.960004
845.077881	0.959549
845.392879	0.960047
845.707833	0.962383
846.022745	0.965205
846.337613	0.966421
846.652438	0.965827
846.967221	0.965160
847.281960	0.965351
847.596656	0.967482
847.911309	0.966522
848.225919	0.967436
848.540485	0.968239
848.855009	0.969977
849.169490	0.968962
849.483928	0.968417
849.798323	0.968725
850.112675	0.969858
850.426984	0.969622
850.741251	0.969649
851.055474	0.968864
851.369654	0.968949
851.683792	0.969983
851.997887	0.970296
852.311938	0.970640
852.625947	0.969101
852.939914	0.968104
853.253837	0.968972
853.567718	0.970807
853.881555	0.971590
854.195350	0.968666
854.509103	0.970112
854.822812	0.971356
855.136479	0.969359
855.450103	0.969329
855.763685	0.967922
856.077224	0.968760
856.390720	0.970366
856.704173	0.970560
857.017584	0.969195
857.330953	0.966984
857.644278	0.968389
857.957561	0.968073
858.270802	0.967008
858.584000	0.968782
858.897155	0.967366
859.210268	0.968477
859.523339	0.968616
859.836367	0.969585
860.149352	0.970940
860.462295	0.968401
860.775195	0.969941
861.088054	0.968405
861.400869	0.968892
861.713642	0.970544
862.026373	0.970190
862.339062	0.969870
862.651708	0.967801
862.964312	0.967197
863.276873	0.969781
863.589392	0.969422
863.901869	0.966178
864.214303	0.965012
864.526696	0.964662
864.839045	0.963795
865.151353	0.961129
865.463619	0.962135
865.775842	0.962556
866.088023	0.962045
866.400162	0.962006
866.712258	0.962079
867.024313	0.963149
867.336325	0.962923
867.648296	0.963814
867.960224	0.962330
868.272110	0.960927
868.583954	0.964346
868.895755	0.963478
869.207515	0.961839
869.519233	0.959329
869.830909	0.961200
870.142542	0.961990
870.454134	0.961659
870.765684	0.960490
871.077191	0.958011
871.388657	0.959477
871.700081	0.957811
872.011463	0.958987
872.322803	0.957897
872.634101	0.956976
872.945357	0.954399
873.256571	0.953868
873.567744	0.952169
873.878874	0.953449
874.189963	0.952728
874.501010	0.951706
874.812015	0.950193
875.122979	0.951699
875.433900	0.952653
875.744780	0.953058
876.055618	0.951111
876.366415	0.949588
876.677169	0.949673
876.987882	0.952190
877.298554	0.950764
877.609183	0.948314
877.919771	0.944467
878.230317	0.942141
878.540822	0.940706
878.851285	0.935171
879.161707	0.927865
879.472087	0.915540
879.782425	0.900102
880.092722	0.865259
880.402977	0.813882
880.713191	0.753788
881.023363	0.695518
881.333494	0.660990
881.643583	0.633029
881.953631	0.633083
882.263637	0.661312
882.573602	0.701478
882.883526	0.726668
883.193408	0.749057
883.503248	0.771888
883.813048	0.799920
884.122806	0.828753
884.432522	0.850969
884.742197	0.870614
885.051831	0.881649
885.361424	0.892130
885.670975	0.903652
885.980485	0.915217
886.289954	0.918848
886.599382	0.925413
886.908768	0.929042
887.218113	0.934009
887.527417	0.938409
887.836680	0.941407
888.145901	0.943434
888.455082	0.945878
888.764221	0.951138
889.073319	0.951575
889.382376	0.953230
889.691392	0.953184
890.000366	0.953611
890.309300	0.954048
890.618193	0.952873
890.927044	0.952451
891.235855	0.953708
891.544625	0.951903
891.853353	0.952305
892.162041	0.950270
892.470687	0.942936
892.779293	0.938321
893.087858	0.934172
893.396381	0.926515
893.704864	0.913177
894.013306	0.890095
894.321707	0.864410
894.630068	0.849192
894.938387	0.845097
895.246665	0.845998
895.554903	0.857480
895.863100	0.871282
896.171256	0.887887
896.479371	0.907114
896.787446	0.920481
897.095480	0.925647
897.403473	0.928977
897.711425	0.932864
898.019336	0.940618
898.327207	0.943464
898.635038	0.945757
898.942827	0.944736
899.250576	0.949221
899.558284	0.953153
899.865952	0.953332
900.173579	0.955987
900.481165	0.956225
900.788711	0.961091
901.096216	0.960861
901.403681	0.961537
901.711105	0.963413
902.018489	0.964363
902.325832	0.962357
902.633135	0.962462
902.940397	0.955465
903.247619	0.944435
903.554800	0.918766
903.861941	0.879426
904.169041	0.844310
904.476101	0.827014
904.783121	0.827812
905.090100	0.844710
905.397039	0.865894
905.703938	0.887275
906.010796	0.905924
906.317614	0.923700
906.624391	0.935482
906.931129	0.944422
907.237826	0.951463
907.544483	0.960038
907.851099	0.962335
908.157675	0.967782
908.464211	0.970062
908.770707	0.972494
909.077163	0.973444
909.383578	0.975485
909.689954	0.974565
909.996289	0.976368
910.302584	0.977649
910.608839	0.979415
910.915054	0.978958
911.221229	0.978671
911.527363	0.978326
911.833458	0.976760
912.139513	0.977876
912.445527	0.975661
912.751502	0.973692
913.057436	0.972803
913.363331	0.970601
913.669186	0.966614
913.975000	0.961159
914.280775	0.954921
914.586510	0.949232
914.892205	0.935620
915.197859	0.915109
915.503475	0.886479
915.809050	0.868078
916.114585	0.863268
916.420081	0.860514
916.725536	0.856826
917.030952	0.865085
917.336328	0.877217
917.641665	0.893088
917.946961	0.907849
918.252218	0.919105
918.557435	0.927847
918.862612	0.936925
919.167750	0.943078
919.472848	0.947408
919.777906	0.953074
920.082925	0.958315
920.387904	0.962204
920.692843	0.963665
920.997743	0.964001
921.302603	0.967090
921.607423	0.968646
921.912204	0.971306
922.216946	0.972396
922.521647	0.974287
922.826310	0.975366
923.130932	0.976748
923.435516	0.978890
923.740059	0.980638
924.044564	0.978001
924.349028	0.979653
924.653454	0.983189
924.957840	0.985688
925.262186	0.984335
925.566493	0.984088
925.870761	0.985205
926.174989	0.986429
926.479178	0.988194
926.783328	0.988710
927.087438	0.988722
927.391509	0.988454
927.695541	0.990921
927.999533	0.989723
928.303486	0.989298
928.607400	0.991123
928.911275	0.989458
929.215110	0.990895
929.518906	0.990730
929.822663	0.989097
930.126381	0.990925
930.430060	0.990249
930.733699	0.991098
931.037299	0.989584
931.340861	0.990686
931.644383	0.990041
931.947866	0.989494
932.251309	0.991403
932.554714	0.989302
932.858080	0.990920
933.161407	0.990594
933.464694	0.990061
933.767943	0.989472
934.071153	0.990251
934.374323	0.991652
934.677455	0.990639
934.980548	0.991856
935.283602	0.991222
935.586617	0.990467
935.889593	0.991461
936.192530	0.991276
936.495428	0.990391
936.798287	0.990553
937.101108	0.990909
937.403890	0.988651
937.706632	0.987881
938.009336	0.987315
938.312002	0.985712
938.614628	0.985115
938.917216	0.983609
939.219765	0.981999
939.522275	0.982423
939.824747	0.983201
940.127179	0.982701
940.429573	0.983203
940.731929	0.985185
941.034246	0.984657
941.336524	0.986583
941.638763	0.985498
941.940964	0.985758
942.243126	0.986801
942.545250	0.987249
942.847335	0.987540
943.149381	0.988780
943.451389	0.987086
943.753359	0.988212
944.055290	0.990887
944.357182	0.989585
944.659036	0.988771
944.960851	0.989299
945.262628	0.989910
945.564367	0.990778
945.866067	0.990309
946.167729	0.989251
946.469352	0.989472
946.770937	0.989038
947.072484	0.991784
947.373992	0.989818
947.675462	0.989644
947.976893	0.990268
948.278286	0.991406
948.579641	0.991677
948.880958	0.990019
949.182236	0.990112
949.483476	0.991196
949.784678	0.989224
950.085841	0.991007
950.386967	0.990054
950.688054	0.990549
950.989103	0.991507
951.290114	0.989230
951.591087	0.990547
951.892021	0.989749
952.192917	0.989186
952.493776	0.987327
952.794596	0.988932
953.095378	0.988242
953.396122	0.988113
953.696828	0.987410
953.997496	0.989210
954.298126	0.990560
954.598718	0.991353
954.899272	0.990464
955.199788	0.990271
955.500266	0.991428
955.800706	0.991959
956.101108	0.993641
956.401472	0.993610
956.701798	0.995534
957.002087	0.993290
957.302337	0.993951
957.602550	0.995385
957.902724	0.994787
958.202861	0.994471
958.502960	0.995595
958.803022	0.993923
959.103045	0.996317
959.403031	0.995754
959.702979	0.995389
960.002889	0.995500
960.302762	0.993911
960.602596	0.995898
960.902393	0.994822
961.202153	0.995790
961.501875	0.996871
961.801559	0.995501
962.101205	0.995678
962.400814	0.996946
962.700385	0.995330
962.999918	0.996322
963.299414	0.996934
963.598873	0.995595
963.898293	0.995758
964.197677	0.996271
964.497022	0.996655
964.796331	0.997135
965.095601	0.996405
965.394835	0.996195
965.694030	0.996959
965.993189	0.996990
966.292309	0.997122
966.591393	0.996183
966.890439	0.996078
967.189447	0.996633
967.488419	0.996594
967.787353	0.996232
968.086249	0.996369
968.385108	0.997192
968.683930	0.997207
968.982714	0.997279
969.281462	0.997569
969.580172	0.996368
969.878844	0.997001
970.177480	0.996839
970.476078	0.998085
970.774639	0.996607
971.073162	0.997643
971.371649	0.996352
971.670098	0.996192
971.968510	0.996897
972.266885	0.995108
972.565223	0.996632
972.863524	0.997845
973.161788	0.996378
973.460014	0.997196
973.758204	0.994785
974.056356	0.996648
974.354471	0.994817
974.652550	0.995498
974.950591	0.995356
975.248595	0.996027
975.546563	0.995738
975.844493	0.997575
976.142386	0.997291
976.440243	0.997756
976.738062	0.996510
977.035845	0.998206
977.333590	0.997217
977.631299	0.997983
977.928971	0.997011
978.226606	0.995913
978.524204	0.996038
978.821765	0.997785
979.119290	0.997082
979.416777	0.996302
979.714228	0.998491
980.011642	0.995802
980.309020	0.997673
980.606360	0.997270
980.903664	0.998987
981.200931	0.996265
981.498162	0.994442
981.795356	0.994863
982.092513	0.992968
982.389633	0.994815
982.686717	0.991466
982.983764	0.991502
983.280775	0.990009
983.577749	0.990435
983.874686	0.991660
984.171587	0.991818
984.468451	0.993886
984.765279	0.995216
985.062070	0.994505
985.358824	0.994744
985.655543	0.994589
985.952224	0.996481
986.248869	0.996266
986.545478	0.997379
986.842050	0.997746
987.138586	0.994696
987.435086	0.997651
987.731549	0.998368
988.027975	0.997578
988.324366	0.996840
988.620719	0.997442
988.917037	0.996695
989.213318	0.997133
989.509563	0.998529
989.805772	0.998118
990.101944	0.998810
990.398080	0.997668
990.694180	0.997749
990.990244	0.997204
991.286271	0.998299
991.582262	0.997723
991.878217	0.998103
992.174136	0.998152
992.470019	0.999556
992.765865	0.997654
993.061676	0.998671
993.357450	0.997131
993.653188	0.997358
993.948890	0.996610
994.244556	0.997518
994.540186	0.996553
994.835780	0.996413
995.131337	0.998444
995.426859	0.996581
995.722345	0.997688
996.017795	0.996107
996.313208	0.996144
996.608586	0.995581
996.903928	0.997120
997.199234	0.996249
997.494504	0.996464
997.789738	0.996153
998.084936	0.995014
998.380099	0.998645
998.675225	0.996609
998.970316	0.998768
999.265371	0.997747
999.560390	0.998719
999.855373	0.998299
1000.150320	0.998022
1000.445232	0.998830
1000.740108	0.996832
1001.034948	0.998319
1001.329752	0.999172
1001.624521	0.998042
1001.919254	0.998189
1002.213951	0.998184
1002.508613	0.997790
1002.803239	0.998695
1003.097829	0.998275
1003.392384	0.998512
1003.686903	0.999352
1003.981386	0.997564
1004.275834	0.999173
1004.570246	0.998284
1004.864623	0.998894
1005.158964	0.999175
1005.453270	0.997920
1005.747540	0.996652
1006.041775	0.998663
1006.335974	0.998152
1006.630138	0.998062
1006.924266	0.999116
1007.218359	1.000015
1007.512416	0.999137
1007.806438	0.998817
1008.100425	1.000090
1008.394376	0.997491
1008.688292	0.997873
1008.982172	0.999887
1009.276017	0.999686
1009.569827	0.998232
1009.863602	0.998867
1010.157341	0.999360
1010.451045	0.999302
1010.744714	0.998969
1011.038347	0.998833
1011.331945	0.998214
1011.625508	0.996176
1011.919036	0.998535
1012.212528	0.998590
1012.505986	0.997348
1012.799408	0.998716
1013.092795	0.997787
1013.386147	0.999107
1013.679464	0.999061
1013.972745	0.997720
1014.265992	0.997866
1014.559204	0.999315
1014.852380	0.998699
1015.145521	0.999046
1015.438628	0.998402
1015.731699	0.997469
1016.024736	0.998858
1016.317737	0.997245
1016.610703	0.998311
1016.903635	0.998632
1017.196531	0.998328
1017.489393	0.998933
1017.782219	0.998258
1018.075011	1.000026
1018.367768	0.999092
1018.660490	0.998743
1018.953177	0.998743
1019.245829	0.998743
