Dividing Wavelength (nm)	Counts (n)	Blue Motor Position (mm): 0.000000	Red Motor Position (mm): 4.100000	
326.493990	1.000921
326.888308	1.000921
327.282561	1.000921
327.676750	0.999589
328.070874	0.998590
328.464933	0.999509
328.858929	0.998890
329.252859	0.999610
329.646726	0.998850
330.040528	1.000356
330.434265	0.998308
330.827938	1.000885
331.221547	1.000098
331.615091	0.999736
332.008571	0.999442
332.401986	0.999832
332.795338	0.999752
333.188625	0.998204
333.581847	0.999420
333.975006	0.999220
334.368100	0.999953
334.761129	0.999158
335.154095	1.000484
335.546996	0.997638
335.939833	0.991813
336.332606	0.992771
336.725315	0.993089
337.117960	0.992981
337.510540	0.993213
337.903056	0.993930
338.295508	0.992147
338.687896	0.993159
339.080220	0.993271
339.472480	0.992831
339.864676	0.993702
340.256807	0.993707
340.648875	0.994111
341.040879	0.994691
341.432818	0.992956
341.824694	0.993398
342.216506	0.993650
342.608253	0.993128
342.999937	0.993517
343.391557	0.993128
343.783113	0.992578
344.174605	0.993601
344.566033	0.993978
344.957397	0.992331
345.348697	0.993170
345.739934	0.992859
346.131106	0.991606
346.522215	0.992151
346.913260	0.992832
347.304241	0.992820
347.695159	0.991618
348.086012	0.991762
348.476802	0.991612
348.867528	0.992818
349.258191	0.991218
349.648789	0.993229
350.039324	0.992008
350.429796	0.993778
350.820203	0.993367
351.210548	0.993621
351.600828	0.992225
351.991045	0.992411
352.381198	0.993055
352.771288	0.992506
353.161314	0.992077
353.551276	0.992902
353.941175	0.992705
354.331010	0.991287
354.720782	0.994084
355.110490	0.992480
355.500135	0.992357
355.889717	0.992261
356.279235	0.991497
356.668689	0.992461
357.058080	0.991211
357.447408	0.992977
357.836672	0.991848
358.225873	0.992789
358.615010	0.991857
359.004084	0.992827
359.393095	0.992889
359.782043	0.992189
360.170927	0.993826
360.559748	0.993083
360.948505	0.991377
361.337199	0.991405
361.725830	0.991660
362.114398	0.991456
362.502903	0.992173
362.891344	0.992425
363.279722	0.991724
363.668037	0.991863
364.056289	0.989738
364.444478	0.992850
364.832603	0.992494
365.220665	0.992180
365.608665	0.991294
365.996601	0.990238
366.384474	0.990160
366.772284	0.991033
367.160031	0.989405
367.547715	0.989554
367.935336	0.990360
368.322893	0.989068
368.710388	0.987801
369.097820	0.988313
369.485189	0.987126
369.872495	0.985091
370.259738	0.982188
370.646918	0.983295
371.034035	0.981022
371.421090	0.977529
371.808081	0.974187
372.195010	0.972142
372.581875	0.968622
372.968678	0.963251
373.355418	0.960906
373.742096	0.954996
374.128710	0.951194
374.515262	0.944760
374.901751	0.939662
375.288177	0.936473
375.674540	0.929227
376.060841	0.923949
376.447079	0.916812
376.833254	0.910768
377.219367	0.905524
377.605417	0.894710
377.991404	0.890196
378.377329	0.883266
378.763191	0.877993
379.148991	0.868431
379.534727	0.860226
379.920402	0.852648
380.306013	0.847927
380.691563	0.834899
381.077049	0.827695
381.462474	0.822065
381.847835	0.812597
382.233134	0.805601
382.618371	0.804969
383.003545	0.787373
383.388657	0.784625
383.773706	0.777848
384.158693	0.772541
384.543618	0.765474
384.928480	0.757816
385.313280	0.746068
385.698017	0.746581
386.082692	0.735183
386.467305	0.732613
386.851856	0.725144
387.236344	0.720109
387.620770	0.713615
388.005133	0.708640
388.389435	0.702849
388.773674	0.700159
389.157851	0.692214
389.541965	0.688992
389.926018	0.695757
390.310008	0.682554
390.693936	0.679116
391.077802	0.671650
391.461606	0.673919
391.845348	0.662780
392.229027	0.663297
392.612645	0.660450
392.996200	0.647597
393.379694	0.640415
393.763125	0.631327
394.146494	0.635837
394.529801	0.625442
394.913047	0.618141
395.296230	0.623561
395.679351	0.615581
396.062410	0.612088
396.445408	0.614721
396.828343	0.610304
397.211217	0.604864
397.594028	0.618143
397.976778	0.606610
398.359466	0.604301
398.742092	0.599006
399.124656	0.611642
399.507158	0.600150
399.889598	0.597547
400.271977	0.587679
400.654294	0.592375
401.036549	0.590654
401.418742	0.595421
401.800874	0.579999
402.182944	0.577905
402.564952	0.569307
402.946898	0.572203
403.328783	0.572059
403.710606	0.583321
404.092367	0.558476
404.474067	0.563801
404.855705	0.561119
405.237282	0.572160
405.618797	0.557531
406.000250	0.553327
406.381642	0.543663
406.762972	0.548074
407.144240	0.547133
407.525447	0.547195
407.906593	0.540389
408.287677	0.535684
408.668700	0.543339
409.049661	0.537679
409.430560	0.533155
409.811399	0.541481
410.192176	0.523066
410.572891	0.529542
410.953545	0.518208
411.334138	0.531680
411.714669	0.524559
412.095139	0.536367
412.475547	0.521076
412.855894	0.522635
413.236180	0.521958
413.616405	0.527471
413.996568	0.517643
414.376670	0.524467
414.756711	0.528889
415.136691	0.525302
415.516609	0.516737
415.896466	0.512933
416.276262	0.508939
416.655997	0.511417
417.035670	0.492639
417.415283	0.484529
417.794834	0.488637
418.174324	0.494762
418.553753	0.503983
418.933121	0.485783
419.312428	0.479233
419.691674	0.485530
420.070859	0.473613
420.449983	0.481690
420.829045	0.471237
421.208047	0.479826
421.586988	0.473549
421.965867	0.472236
422.344686	0.460799
422.723444	0.473583
423.102141	0.490373
423.480777	0.463927
423.859352	0.484135
424.237866	0.461080
424.616319	0.462092
424.994712	0.452887
425.373044	0.463071
425.751314	0.451042
426.129524	0.467425
426.507673	0.451752
426.885762	0.445058
427.263789	0.450487
427.641756	0.460183
428.019662	0.450219
428.397508	0.449576
428.775292	0.453666
429.153016	0.445412
429.530679	0.452150
429.908282	0.445870
430.285824	0.454855
430.663305	0.433562
431.040726	0.454809
431.418086	0.454739
431.795385	0.446443
432.172624	0.445299
432.549802	0.446250
432.926920	0.444524
433.303977	0.444169
433.680974	0.441682
434.057910	0.439901
434.434786	0.439194
434.811601	0.441889
435.188355	0.424336
435.565050	0.433476
435.941683	0.435202
436.318257	0.419899
436.694770	0.419628
437.071222	0.417705
437.447614	0.422649
437.823946	0.428819
438.200218	0.418540
438.576429	0.428421
438.952580	0.421372
439.328670	0.417986
439.704700	0.424863
440.080670	0.425941
440.456580	0.407133
440.832429	0.415072
441.208218	0.425652
441.583947	0.415287
441.959616	0.414552
442.335224	0.419164
442.710773	0.410601
443.086261	0.408455
443.461689	0.422296
443.837057	0.412114
444.212365	0.402437
444.587612	0.408702
444.962800	0.399186
445.337927	0.400231
445.712995	0.426562
446.088002	0.389240
446.462949	0.399182
446.837837	0.403829
447.212664	0.392981
447.587431	0.384111
447.962139	0.354801
448.336786	0.314221
448.711374	0.324650
449.085901	0.368195
449.460369	0.372717
449.834776	0.376599
450.209124	0.355842
450.583412	0.348327
450.957640	0.341295
451.331808	0.352821
451.705917	0.376294
452.079965	0.380530
452.453954	0.368696
452.827883	0.375372
453.201752	0.370919
453.575562	0.381816
453.949311	0.370417
454.323001	0.376497
454.696632	0.372276
455.070202	0.365063
455.443713	0.356808
455.817164	0.351837
456.190556	0.347384
456.563888	0.344218
456.937160	0.342070
457.310373	0.359144
457.683526	0.357965
458.056619	0.363447
458.429653	0.364057
458.802628	0.367395
459.175542	0.362120
459.548398	0.344528
459.921194	0.336782
460.293930	0.336677
460.666607	0.314637
461.039224	0.303023
461.411782	0.298611
461.784280	0.297756
462.156719	0.301722
462.529099	0.306681
462.901419	0.321853
463.273680	0.326926
463.645882	0.326192
464.018024	0.331961
464.390106	0.325003
464.762130	0.310214
465.134094	0.292906
465.505999	0.261929
465.877845	0.232303
466.249631	0.219333
466.621358	0.226886
466.993026	0.240474
467.364634	0.246772
467.736184	0.255979
468.107674	0.264445
468.479105	0.263477
468.850477	0.270322
469.221790	0.276971
469.593043	0.287296
469.964238	0.291916
470.335373	0.291398
470.706449	0.289583
471.077467	0.290136
471.448425	0.252341
471.819324	0.228102
472.190164	0.227360
472.560945	0.255877
472.931667	0.278437
473.302330	0.282374
473.672934	0.294244
474.043479	0.282579
474.413965	0.284141
474.784393	0.287528
475.154761	0.282735
475.525070	0.279766
475.895321	0.285698
476.265513	0.279895
476.635645	0.275187
477.005719	0.275181
477.375734	0.271933
477.745691	0.264895
478.115588	0.261365
478.485427	0.254931
478.855207	0.241986
479.224928	0.224540
479.594591	0.212588
479.964194	0.216212
480.333739	0.217250
480.703226	0.218925
481.072653	0.217158
481.442022	0.212783
481.811333	0.209278
482.180584	0.213040
482.549777	0.218160
482.918912	0.221526
483.287988	0.221001
483.657005	0.220729
484.025964	0.227388
484.394864	0.224366
484.763706	0.225341
485.132489	0.230213
485.501213	0.231009
485.869879	0.229411
486.238487	0.232783
486.607036	0.230445
486.975527	0.235026
487.343959	0.230660
487.712333	0.230209
488.080648	0.231493
488.448905	0.230596
488.817104	0.231858
489.185244	0.226338
489.553326	0.223361
489.921350	0.213143
490.289315	0.195854
490.657222	0.190788
491.025070	0.192136
491.392861	0.193886
491.760593	0.199642
492.128267	0.205228
492.495883	0.210828
492.863440	0.216942
493.230939	0.223343
493.598380	0.224595
493.965763	0.227254
494.333088	0.229271
494.700354	0.230656
495.067563	0.229629
495.434713	0.233064
495.801805	0.230666
496.168839	0.232220
496.535815	0.233387
496.902733	0.233797
497.269593	0.235315
497.636395	0.233020
498.003139	0.233398
498.369825	0.236336
498.736453	0.232884
499.103023	0.234210
499.469535	0.233838
499.835989	0.233886
500.202385	0.235005
500.568723	0.238237
500.935003	0.233325
501.301226	0.237782
501.667390	0.231800
502.033497	0.230144
502.399546	0.233044
502.765537	0.234793
503.131470	0.233376
503.497345	0.229236
503.863163	0.238523
504.228923	0.231173
504.594625	0.229943
504.960269	0.235318
505.325856	0.230528
505.691385	0.234797
506.056856	0.231373
506.422270	0.231075
506.787625	0.233292
507.152924	0.230786
507.518164	0.231250
507.883347	0.233031
508.248472	0.234538
508.613540	0.229905
508.978550	0.232286
509.343503	0.232601
509.708398	0.230604
510.073236	0.227977
510.438016	0.228072
510.802738	0.228789
511.167403	0.227910
511.532010	0.230071
511.896561	0.225373
512.261053	0.224100
512.625488	0.226115
512.989866	0.226598
513.354186	0.226567
513.718449	0.228727
514.082655	0.225119
514.446803	0.226931
514.810894	0.224822
515.174927	0.227586
515.538904	0.226906
515.902822	0.223857
516.266684	0.226351
516.630488	0.227473
516.994235	0.226041
517.357925	0.224892
517.721558	0.223385
518.085133	0.222727
518.448651	0.223021
518.812112	0.225168
519.175516	0.224746
519.538863	0.222167
519.902152	0.224010
520.265385	0.220705
520.628560	0.222562
520.991678	0.223204
521.354739	0.221758
521.717743	0.223135
522.080690	0.223571
522.443580	0.220981
522.806413	0.221794
523.169189	0.221388
523.531908	0.220202
523.894569	0.223754
524.257174	0.223473
524.619722	0.221338
524.982213	0.222397
525.344647	0.221408
525.707025	0.222041
526.069345	0.220421
526.431608	0.222044
526.793815	0.219926
527.155964	0.224010
527.518057	0.222803
527.880093	0.224094
528.242072	0.222697
528.603995	0.224356
528.965860	0.226310
529.327669	0.224988
529.689421	0.225975
530.051117	0.226835
530.412755	0.224227
530.774337	0.226819
531.135862	0.226922
531.497331	0.226534
531.858743	0.229243
532.220098	0.226245
532.581396	0.228877
532.942638	0.229157
533.303824	0.230104
533.664953	0.229953
534.026025	0.231146
534.387040	0.229474
534.747999	0.229262
535.108902	0.228330
535.469748	0.233404
535.830537	0.231092
536.191270	0.231706
536.551947	0.231152
536.912567	0.231027
537.273131	0.232892
537.633638	0.233066
537.994089	0.233587
538.354483	0.234527
538.714821	0.231618
539.075103	0.231089
539.435328	0.231977
539.795497	0.235388
540.155609	0.232429
540.515665	0.230334
540.875665	0.236097
541.235609	0.234777
541.595496	0.234786
541.955328	0.231464
542.315102	0.233945
542.674821	0.234767
543.034483	0.235139
543.394090	0.234692
543.753640	0.236717
544.113134	0.231801
544.472571	0.234927
544.831953	0.231757
545.191278	0.235783
545.550548	0.235310
545.909761	0.232082
546.268918	0.233070
546.628019	0.231115
546.987064	0.234215
547.346053	0.235858
547.704986	0.233595
548.063863	0.233913
548.422684	0.233743
548.781449	0.236166
549.140158	0.233358
549.498811	0.236382
549.857408	0.239766
550.215949	0.234562
550.574434	0.237173
550.932864	0.235355
551.291237	0.234008
551.649555	0.235519
552.007817	0.234963
552.366022	0.235776
552.724173	0.236179
553.082267	0.236468
553.440305	0.233051
553.798288	0.237856
554.156215	0.234275
554.514086	0.234990
554.871902	0.238131
555.229661	0.237411
555.587365	0.237626
555.945014	0.240277
556.302606	0.237276
556.660143	0.239725
557.017625	0.236133
557.375050	0.238713
557.732421	0.235730
558.089735	0.237445
558.446994	0.237785
558.804197	0.237002
559.161345	0.236730
559.518437	0.240422
559.875474	0.237925
560.232455	0.237596
560.589381	0.238705
560.946251	0.238928
561.303065	0.235879
561.659825	0.237857
562.016528	0.238946
562.373177	0.242120
562.729770	0.239434
563.086307	0.241527
563.442789	0.238993
563.799216	0.242178
564.155587	0.240799
564.511904	0.241706
564.868164	0.242074
565.224370	0.241782
565.580520	0.243817
565.936615	0.243531
566.292654	0.246552
566.648638	0.243284
567.004567	0.244356
567.360441	0.244944
567.716260	0.246931
568.072023	0.244910
568.427732	0.245387
568.783385	0.248133
569.138982	0.246071
569.494525	0.245608
569.850013	0.248466
570.205445	0.247057
570.560823	0.249492
570.916145	0.251351
571.271412	0.249794
571.626625	0.251020
571.981782	0.251645
572.336884	0.252623
572.691931	0.252382
573.046923	0.253701
573.401860	0.254961
573.756743	0.256495
574.111570	0.255186
574.466342	0.255795
574.821059	0.254836
575.175722	0.257715
575.530330	0.257218
575.884882	0.257639
576.239380	0.259892
576.593823	0.260288
576.948211	0.259807
577.302544	0.262985
577.656823	0.262492
578.011047	0.262773
578.365216	0.263660
578.719330	0.265458
579.073389	0.265301
579.427394	0.266680
579.781344	0.267299
580.135239	0.268709
580.489080	0.268310
580.842866	0.271646
581.196597	0.271191
581.550273	0.269927
581.903895	0.270930
582.257463	0.269206
582.610975	0.272400
582.964434	0.271783
583.317837	0.274137
583.671186	0.274771
584.024481	0.274773
584.377721	0.277516
584.730906	0.277779
585.084037	0.277144
585.437113	0.278777
585.790135	0.278300
586.143103	0.281172
586.496016	0.282530
586.848874	0.279983
587.201679	0.280592
587.554428	0.284129
587.907124	0.282475
588.259765	0.283192
588.612352	0.283984
588.964884	0.287927
589.317362	0.287213
589.669786	0.287357
590.022155	0.285833
590.374470	0.284737
590.726731	0.287071
591.078937	0.291899
591.431090	0.287976
591.783188	0.292647
592.135232	0.292932
592.487222	0.292868
592.839157	0.290897
593.191038	0.293220
593.542866	0.294802
593.894639	0.298755
594.246358	0.296769
594.598022	0.296017
594.949633	0.299851
595.301190	0.300464
595.652692	0.299583
596.004141	0.296268
596.355535	0.303776
596.706876	0.304475
597.058162	0.306844
597.409395	0.304311
597.760573	0.301899
598.111698	0.305466
598.462768	0.305721
598.813785	0.306930
599.164748	0.308322
599.515657	0.308163
599.866511	0.311752
600.217312	0.306895
600.568060	0.312458
600.918753	0.308912
601.269392	0.309633
601.619978	0.313152
601.970510	0.310584
602.320988	0.310914
602.671412	0.308476
603.021783	0.311129
603.372100	0.312203
603.722363	0.312458
604.072572	0.312939
604.422728	0.312629
604.772830	0.314644
605.122878	0.314309
605.472872	0.314580
605.822813	0.313474
606.172701	0.316053
606.522534	0.313198
606.872314	0.313235
607.222041	0.314138
607.571714	0.312203
607.921333	0.313796
608.270899	0.313582
608.620411	0.309856
608.969870	0.314139
609.319276	0.314300
609.668627	0.314162
610.017926	0.312820
610.367171	0.311409
610.716362	0.311919
611.065500	0.312080
611.414585	0.310862
611.763616	0.311465
612.112594	0.312053
612.461518	0.311426
612.810389	0.309044
613.159207	0.311087
613.507971	0.313527
613.856682	0.309045
614.205340	0.310476
614.553945	0.307001
614.902496	0.311081
615.250994	0.309079
615.599439	0.309887
615.947830	0.309399
616.296169	0.310587
616.644454	0.310265
616.992686	0.309684
617.340864	0.307414
617.688990	0.311122
618.037063	0.308118
618.385082	0.309783
618.733048	0.307032
619.080961	0.308959
619.428821	0.308097
619.776628	0.307920
620.124382	0.310061
620.472083	0.309930
620.819731	0.309601
621.167326	0.313907
621.514868	0.313500
621.862357	0.317515
622.209793	0.316909
622.557176	0.319330
622.904506	0.320297
623.251783	0.322779
623.599007	0.325308
623.946179	0.324556
624.293297	0.326585
624.640363	0.330399
624.987376	0.331006
625.334336	0.333319
625.681243	0.335739
626.028097	0.336441
626.374899	0.337547
626.721647	0.337551
627.068343	0.340627
627.414987	0.341995
627.761577	0.344162
628.108115	0.342514
628.454600	0.347654
628.801032	0.344730
629.147412	0.347170
629.493739	0.347367
629.840014	0.350648
630.186236	0.347921
630.532405	0.354034
630.878521	0.350960
631.224585	0.353352
631.570597	0.356947
631.916556	0.355062
632.262462	0.355157
632.608316	0.357774
632.954117	0.358415
633.299866	0.359385
633.645562	0.359489
633.991206	0.364066
634.336797	0.366569
634.682336	0.369033
635.027823	0.370498
635.373257	0.371154
635.718639	0.374904
636.063968	0.373559
636.409245	0.379745
636.754470	0.380063
637.099642	0.382503
637.444762	0.385766
637.789829	0.384946
638.134845	0.388760
638.479808	0.389824
638.824719	0.389505
639.169577	0.394065
639.514383	0.392126
639.859137	0.396702
640.203839	0.396524
640.548489	0.397198
640.893086	0.398573
641.237632	0.399901
641.582125	0.398445
641.926566	0.399584
642.270955	0.400077
642.615292	0.400160
642.959576	0.399840
643.303809	0.399852
643.647990	0.399127
643.992118	0.400323
644.336195	0.403946
644.680219	0.402229
645.024192	0.402901
645.368112	0.395997
645.711981	0.395288
646.055797	0.390600
646.399562	0.393329
646.743274	0.385545
647.086935	0.382480
647.430544	0.382692
647.774101	0.381654
648.117606	0.381532
648.461059	0.381814
648.804460	0.384325
649.147810	0.389106
649.491108	0.391092
649.834354	0.392634
650.177548	0.398290
650.520690	0.403204
650.863781	0.404428
651.206820	0.404002
651.549807	0.409008
651.892742	0.412347
652.235626	0.412126
652.578458	0.412831
652.921238	0.419351
653.263967	0.416539
653.606644	0.420570
653.949269	0.420227
654.291843	0.424377
654.634365	0.421286
654.976836	0.424224
655.319255	0.424222
655.661622	0.426464
656.003938	0.426426
656.346203	0.429053
656.688416	0.426689
657.030577	0.430356
657.372687	0.432161
657.714746	0.432879
658.056753	0.429889
658.398708	0.433931
658.740612	0.435019
659.082465	0.430887
659.424266	0.431714
659.766016	0.430960
660.107715	0.434343
660.449362	0.432972
660.790958	0.433472
661.132503	0.433604
661.473996	0.432042
661.815438	0.432213
662.156829	0.432680
662.498168	0.433358
662.839456	0.434780
663.180693	0.432759
663.521879	0.432436
663.863013	0.434102
664.204097	0.431789
664.545129	0.428986
664.886110	0.429318
665.227040	0.426791
665.567918	0.429136
665.908746	0.427359
666.249522	0.426515
666.590248	0.427870
666.930922	0.425797
667.271545	0.424864
667.612118	0.425268
667.952639	0.426311
668.293109	0.425411
668.633528	0.428406
668.973896	0.428130
669.314213	0.428654
669.654480	0.430316
669.994695	0.430557
670.334859	0.431518
670.674973	0.431593
671.015035	0.431426
671.355047	0.431408
671.695008	0.432723
672.034918	0.434450
672.374777	0.434248
672.714585	0.434991
673.054342	0.435072
673.394049	0.435150
673.733705	0.432401
674.073310	0.434060
674.412864	0.436550
674.752368	0.437258
675.091820	0.437290
675.431223	0.441895
675.770574	0.441752
676.109875	0.444974
676.449125	0.445193
676.788324	0.447384
677.127473	0.452895
677.466571	0.452090
677.805619	0.453611
678.144616	0.455418
678.483562	0.456460
678.822458	0.458808
679.161303	0.460719
679.500098	0.460302
679.838842	0.462245
680.177535	0.461786
680.516179	0.460296
680.854771	0.459552
681.193314	0.453345
681.531805	0.444574
681.870247	0.432274
682.208638	0.425245
682.546978	0.424469
682.885268	0.425598
683.223508	0.432579
683.561697	0.435809
683.899836	0.438696
684.237925	0.442174
684.575963	0.444894
684.913951	0.447775
685.251889	0.443078
685.589776	0.445466
685.927614	0.447445
686.265401	0.441997
686.603137	0.443618
686.940824	0.437264
687.278460	0.436021
687.616046	0.435325
687.953582	0.429736
688.291068	0.431284
688.628504	0.426782
688.965889	0.428719
689.303224	0.433593
689.640510	0.437325
689.977745	0.443049
690.314930	0.451278
690.652065	0.455349
690.989150	0.462938
691.326185	0.469229
691.663170	0.474146
692.000105	0.481631
692.336990	0.488144
692.673825	0.490936
693.010610	0.497536
693.347345	0.503075
693.684030	0.504522
694.020665	0.509123
694.357251	0.518545
694.693786	0.518309
695.030272	0.521756
695.366707	0.525059
695.703093	0.528952
696.039429	0.526760
696.375716	0.528660
696.711952	0.531485
697.048139	0.533828
697.384276	0.535611
697.720363	0.533620
698.056400	0.532767
698.392388	0.538068
698.728326	0.541033
699.064214	0.544613
699.400053	0.544819
699.735842	0.548463
700.071581	0.550844
700.407270	0.554335
700.742910	0.556962
701.078501	0.562666
701.414042	0.563286
701.749533	0.566211
702.084974	0.575705
702.420366	0.566889
702.755709	0.575530
703.091002	0.583318
703.426246	0.576549
703.761440	0.581804
704.096584	0.587319
704.431679	0.584353
704.766725	0.585946
705.101721	0.587831
705.436668	0.583476
705.771565	0.590728
706.106413	0.587845
706.441212	0.583068
706.775961	0.581801
707.110661	0.585029
707.445311	0.581301
707.779913	0.578469
708.114465	0.576445
708.448967	0.573628
708.783421	0.565439
709.117825	0.559530
709.452180	0.559948
709.786485	0.554317
710.120742	0.543354
710.454949	0.545798
710.789107	0.537941
711.123216	0.528738
711.457275	0.529904
711.791286	0.521518
712.125247	0.520121
712.459159	0.531236
712.793023	0.523313
713.126837	0.527979
713.460602	0.528080
713.794318	0.537451
714.127985	0.536617
714.461602	0.546461
714.795171	0.549535
715.128691	0.557098
715.462162	0.565182
715.795584	0.570600
716.128957	0.573107
716.462281	0.580241
716.795556	0.583308
717.128782	0.588814
717.461960	0.597633
717.795088	0.595919
718.128167	0.603439
718.461198	0.611873
718.794180	0.612821
719.127113	0.615135
719.459997	0.618802
719.792833	0.624898
720.125619	0.626155
720.458357	0.631625
720.791046	0.631283
721.123686	0.635379
721.456278	0.641716
721.788821	0.638499
722.121315	0.643518
722.453761	0.647160
722.786158	0.645102
723.118506	0.641804
723.450805	0.649619
723.783056	0.646857
724.115259	0.643237
724.447412	0.642683
724.779518	0.643594
725.111574	0.643110
725.443582	0.638041
725.775542	0.640472
726.107453	0.632420
726.439315	0.633186
726.771129	0.630465
727.102895	0.624232
727.434612	0.617310
727.766281	0.615003
728.097901	0.614571
728.429473	0.613739
728.760996	0.612927
729.092471	0.613152
729.423897	0.616793
729.755276	0.615222
730.086606	0.615846
730.417887	0.610116
730.749120	0.600864
731.080305	0.591356
731.411442	0.587414
731.742530	0.592984
732.073570	0.591675
732.404562	0.583780
732.735506	0.585005
733.066401	0.589937
733.397249	0.599337
733.728048	0.610599
734.058798	0.623453
734.389501	0.634080
734.720156	0.643800
735.050762	0.651758
735.381320	0.652160
735.711831	0.662326
736.042293	0.666946
736.372707	0.662354
736.703073	0.667581
737.033391	0.669947
737.363661	0.666325
737.693883	0.661657
738.024056	0.660492
738.354182	0.660887
738.684260	0.650669
739.014290	0.647252
739.344272	0.646780
739.674207	0.641044
740.004093	0.639573
740.333931	0.639827
740.663722	0.640082
740.993464	0.640814
741.323159	0.644748
741.652806	0.649019
741.982405	0.654366
742.311956	0.659565
742.641460	0.662057
742.970915	0.664892
743.300323	0.672863
743.629683	0.678894
743.958996	0.681403
744.288260	0.685709
744.617477	0.691355
744.946647	0.693557
745.275768	0.697898
745.604842	0.698291
745.933869	0.708176
746.262847	0.708934
746.591778	0.703061
746.920662	0.708281
747.249498	0.714751
747.578286	0.706124
747.907027	0.702244
748.235720	0.703938
748.564365	0.697858
748.892963	0.697302
749.221514	0.699999
749.550017	0.705323
749.878473	0.705504
750.206881	0.711541
750.535242	0.713001
750.863555	0.713333
751.191821	0.713803
751.520039	0.717651
751.848210	0.722416
752.176334	0.715112
752.504411	0.713830
752.832440	0.721912
753.160421	0.726359
753.488356	0.724230
753.816243	0.721746
754.144082	0.729815
754.471875	0.732936
754.799620	0.728674
755.127318	0.729924
755.454969	0.729624
755.782572	0.729485
756.110129	0.735556
756.437638	0.736569
756.765100	0.733518
757.092515	0.731852
757.419882	0.730147
757.747203	0.736021
758.074477	0.735198
758.401703	0.732607
758.728882	0.727486
759.056014	0.725607
759.383099	0.724390
759.710138	0.726269
760.037129	0.722682
760.364073	0.717097
760.690970	0.719173
761.017820	0.725249
761.344623	0.720535
761.671379	0.711294
761.998088	0.699625
762.324751	0.677540
762.651366	0.635072
762.977935	0.567534
763.304456	0.515090
763.630931	0.505314
763.957359	0.544779
764.283740	0.589333
764.610074	0.616579
764.936362	0.646707
765.262602	0.675164
765.588796	0.695971
765.914943	0.714785
766.241044	0.732307
766.567097	0.738736
766.893104	0.749180
767.219064	0.754689
767.544978	0.762784
767.870845	0.774914
768.196665	0.778823
768.522438	0.776890
768.848165	0.778392
769.173846	0.787856
769.499479	0.792167
769.825066	0.795257
770.150607	0.801106
770.476101	0.794724
770.801548	0.796647
771.126949	0.807284
771.452303	0.812400
771.777611	0.811380
772.102872	0.810456
772.428087	0.816177
772.753256	0.819374
773.078378	0.821563
773.403453	0.829310
773.728482	0.834722
774.053465	0.827822
774.378401	0.832030
774.703291	0.838923
775.028135	0.839747
775.352932	0.841078
775.677683	0.843672
776.002388	0.846450
776.327046	0.843770
776.651658	0.846894
776.976224	0.849971
777.300743	0.851115
777.625216	0.853815
777.949643	0.854609
778.274024	0.854887
778.598359	0.856723
778.922647	0.855647
779.246889	0.856076
779.571086	0.859670
779.895236	0.862253
780.219339	0.859520
780.543397	0.855981
780.867409	0.854178
781.191374	0.857565
781.515294	0.857931
781.839167	0.856787
782.162995	0.860785
782.486776	0.857335
782.810511	0.858134
783.134201	0.862340
783.457844	0.860302
783.781441	0.862982
784.104993	0.868137
784.428498	0.868201
784.751958	0.863972
785.075372	0.867346
785.398739	0.870493
785.722061	0.866275
786.045337	0.863035
786.368568	0.866489
786.691752	0.870081
787.014891	0.855442
787.337983	0.846701
787.661030	0.838384
787.984031	0.821025
788.306987	0.808841
788.629897	0.811604
788.952760	0.814656
789.275579	0.819016
789.598351	0.834427
789.921078	0.847013
790.243759	0.849090
790.566395	0.854314
790.888984	0.861820
791.211529	0.866097
791.534027	0.869432
791.856480	0.871761
792.178888	0.876828
792.501249	0.880094
792.823566	0.880023
793.145836	0.880814
793.468062	0.883328
793.790241	0.882538
794.112375	0.880529
794.434464	0.876421
794.756507	0.876211
795.078505	0.876177
795.400457	0.870163
795.722364	0.857883
796.044226	0.850749
796.366042	0.849420
796.687812	0.852531
797.009538	0.849249
797.331218	0.852631
797.652852	0.857163
797.974442	0.861726
798.295986	0.862824
798.617484	0.864965
798.938938	0.869038
799.260346	0.873842
799.581709	0.875779
799.903026	0.878133
800.224299	0.878897
800.545526	0.882580
800.866708	0.886601
801.187845	0.890720
801.508936	0.890425
801.829983	0.887825
802.150984	0.890999
802.471940	0.895947
802.792851	0.895362
803.113717	0.897168
803.434538	0.894419
803.755314	0.896000
804.076045	0.897077
804.396731	0.899358
804.717372	0.897927
805.037967	0.899857
805.358518	0.897517
805.679024	0.895025
805.999485	0.895249
806.319901	0.894355
806.640272	0.896330
806.960598	0.894264
807.280879	0.892146
807.601115	0.891418
807.921306	0.893779
808.241453	0.893926
808.561554	0.891856
808.881611	0.892266
809.201623	0.893852
809.521590	0.894038
809.841513	0.894898
810.161390	0.895220
810.481223	0.895863
810.801011	0.899007
811.120755	0.901056
811.440453	0.900190
811.760107	0.898540
812.079716	0.899442
812.399281	0.901946
812.718801	0.904663
813.038276	0.905634
813.357707	0.904938
813.677093	0.901597
813.996434	0.905035
814.315731	0.906079
814.634983	0.907852
814.954191	0.906070
815.273354	0.903333
815.592473	0.899690
815.911547	0.899726
816.230577	0.896584
816.549562	0.893634
816.868502	0.895881
817.187399	0.891908
817.506250	0.885999
817.825058	0.888160
818.143821	0.885075
818.462539	0.878607
818.781213	0.870635
819.099843	0.859125
819.418429	0.843665
819.736970	0.826532
820.055466	0.806896
820.373919	0.780919
820.692327	0.747485
821.010691	0.712450
821.329011	0.633821
821.647286	0.516197
821.965517	0.401661
822.283704	0.358577
822.601847	0.359355
822.919945	0.395238
823.237999	0.429673
823.556010	0.477145
823.873976	0.533922
824.191897	0.585476
824.509775	0.628393
824.827609	0.673959
825.145398	0.696587
825.463144	0.700152
825.780845	0.683124
826.098502	0.663285
826.416116	0.617512
826.733685	0.573260
827.051210	0.563914
827.368692	0.578013
827.686129	0.617281
828.003522	0.670483
828.320872	0.718593
828.638177	0.762957
828.955439	0.796010
829.272656	0.818435
829.589830	0.835080
829.906960	0.851413
830.224046	0.864509
830.541088	0.872878
830.858086	0.878255
831.175041	0.885886
831.491952	0.884690
831.808819	0.881457
832.125642	0.875165
832.442421	0.858855
832.759157	0.837024
833.075849	0.790084
833.392497	0.725069
833.709101	0.685414
834.025662	0.693901
834.342179	0.725677
834.658653	0.764810
834.975083	0.802756
835.291469	0.828746
835.607811	0.851948
835.924110	0.867780
836.240366	0.884530
836.556578	0.898749
836.872746	0.906328
837.188871	0.912538
837.504952	0.918395
837.820990	0.922319
838.136984	0.925125
838.452935	0.929003
838.768842	0.929237
839.084706	0.922802
839.400526	0.897424
839.716303	0.856143
840.032037	0.833691
840.347727	0.836316
840.663373	0.855535
840.978977	0.877247
841.294537	0.900846
841.610054	0.916999
841.925527	0.924390
842.240957	0.931335
842.556344	0.939357
842.871687	0.944939
843.186987	0.948811
843.502244	0.948963
843.817458	0.950272
844.132629	0.954059
844.447756	0.958472
844.762840	0.959560
845.077881	0.958965
845.392879	0.958121
845.707833	0.962180
846.022745	0.964138
846.337613	0.963690
846.652438	0.964526
846.967221	0.964230
847.281960	0.964389
847.596656	0.966234
847.911309	0.965000
848.225919	0.966862
848.540485	0.967492
848.855009	0.968286
849.169490	0.966627
849.483928	0.968739
849.798323	0.968709
850.112675	0.968618
850.426984	0.969579
850.741251	0.968929
851.055474	0.969716
851.369654	0.967886
851.683792	0.968479
851.997887	0.969008
852.311938	0.969807
852.625947	0.967348
852.939914	0.967273
853.253837	0.968562
853.567718	0.969936
853.881555	0.969309
854.195350	0.967086
854.509103	0.968289
854.822812	0.969814
855.136479	0.968866
855.450103	0.968960
855.763685	0.966908
856.077224	0.967547
856.390720	0.969375
856.704173	0.969475
857.017584	0.967725
857.330953	0.965931
857.644278	0.966987
857.957561	0.967602
858.270802	0.967410
858.584000	0.967436
858.897155	0.965870
859.210268	0.966082
859.523339	0.966436
859.836367	0.969152
860.149352	0.969693
860.462295	0.968179
860.775195	0.968850
861.088054	0.968178
861.400869	0.969148
861.713642	0.970523
862.026373	0.969745
862.339062	0.969801
862.651708	0.967567
862.964312	0.967055
863.276873	0.968438
863.589392	0.966716
863.901869	0.965685
864.214303	0.964405
864.526696	0.963024
864.839045	0.963672
865.151353	0.960429
865.463619	0.960958
865.775842	0.960630
866.088023	0.961190
866.400162	0.961233
866.712258	0.960926
867.024313	0.961179
867.336325	0.962298
867.648296	0.962413
867.960224	0.960462
868.272110	0.960550
868.583954	0.961929
868.895755	0.962812
869.207515	0.959802
869.519233	0.957816
869.830909	0.960004
870.142542	0.960504
870.454134	0.959971
870.765684	0.960072
871.077191	0.957080
871.388657	0.957164
871.700081	0.956717
872.011463	0.957598
872.322803	0.956533
872.634101	0.955396
872.945357	0.953012
873.256571	0.950743
873.567744	0.951241
873.878874	0.951736
874.189963	0.950237
874.501010	0.949755
874.812015	0.947555
875.122979	0.949607
875.433900	0.950761
875.744780	0.952073
876.055618	0.949401
876.366415	0.948736
876.677169	0.948190
876.987882	0.950939
877.298554	0.949221
877.609183	0.947022
877.919771	0.943859
878.230317	0.940001
878.540822	0.939171
878.851285	0.933080
879.161707	0.925020
879.472087	0.912135
879.782425	0.895938
880.092722	0.861363
880.402977	0.806790
880.713191	0.744734
881.023363	0.684429
881.333494	0.649271
881.643583	0.621616
881.953631	0.621268
882.263637	0.650408
882.573602	0.689634
882.883526	0.715691
883.193408	0.741497
883.503248	0.764168
883.813048	0.792503
884.122806	0.822111
884.432522	0.845719
884.742197	0.866575
885.051831	0.877761
885.361424	0.888809
885.670975	0.899828
885.980485	0.910458
886.289954	0.917314
886.599382	0.922431
886.908768	0.925743
887.218113	0.932128
887.527417	0.936454
887.836680	0.940062
888.145901	0.941525
888.455082	0.943605
888.764221	0.948740
889.073319	0.951564
889.382376	0.950092
889.691392	0.952477
890.000366	0.950448
890.309300	0.952262
890.618193	0.951586
890.927044	0.949407
891.235855	0.949295
891.544625	0.950357
891.853353	0.949429
892.162041	0.948793
892.470687	0.940699
892.779293	0.935827
893.087858	0.931346
893.396381	0.922472
893.704864	0.910212
894.013306	0.885706
894.321707	0.858538
894.630068	0.842908
894.938387	0.837340
895.246665	0.838955
895.554903	0.852391
895.863100	0.866870
896.171256	0.882987
896.479371	0.902630
896.787446	0.915076
897.095480	0.921931
897.403473	0.925765
897.711425	0.929714
898.019336	0.938107
898.327207	0.940580
898.635038	0.943774
898.942827	0.943517
899.250576	0.946186
899.558284	0.950115
899.865952	0.953593
900.173579	0.952576
900.481165	0.954459
900.788711	0.957664
901.096216	0.958931
901.403681	0.958108
901.711105	0.960732
902.018489	0.961505
902.325832	0.959826
902.633135	0.959566
902.940397	0.953873
903.247619	0.941349
903.554800	0.915563
903.861941	0.874570
904.169041	0.836931
904.476101	0.819084
904.783121	0.819803
905.090100	0.836464
905.397039	0.859175
905.703938	0.881424
906.010796	0.903322
906.317614	0.919382
906.624391	0.932409
906.931129	0.941396
907.237826	0.950447
907.544483	0.956122
907.851099	0.960085
908.157675	0.965306
908.464211	0.967680
908.770707	0.971516
909.077163	0.971810
909.383578	0.973608
909.689954	0.973065
909.996289	0.975244
910.302584	0.976409
910.608839	0.977988
910.915054	0.976855
911.221229	0.977512
911.527363	0.975671
911.833458	0.975969
912.139513	0.976518
912.445527	0.973634
912.751502	0.972118
913.057436	0.970213
913.363331	0.968078
913.669186	0.964144
913.975000	0.959380
914.280775	0.954084
914.586510	0.945481
914.892205	0.931190
915.197859	0.910263
915.503475	0.881777
915.809050	0.861484
916.114585	0.855209
916.420081	0.853252
916.725536	0.849218
917.030952	0.858651
917.336328	0.871599
917.641665	0.887214
917.946961	0.903177
918.252218	0.914838
918.557435	0.923731
918.862612	0.933565
919.167750	0.939874
919.472848	0.944869
919.777906	0.949578
920.082925	0.956470
920.387904	0.959621
920.692843	0.960747
920.997743	0.961702
921.302603	0.966431
921.607423	0.967306
921.912204	0.969198
922.216946	0.970543
922.521647	0.971071
922.826310	0.973731
923.130932	0.975536
923.435516	0.976604
923.740059	0.978275
924.044564	0.976872
924.349028	0.978517
924.653454	0.981137
924.957840	0.982984
925.262186	0.981766
925.566493	0.982708
925.870761	0.983565
926.174989	0.985020
926.479178	0.987163
926.783328	0.986834
927.087438	0.987950
927.391509	0.987559
927.695541	0.988979
927.999533	0.988276
928.303486	0.989010
928.607400	0.990031
928.911275	0.989584
929.215110	0.988549
929.518906	0.989973
929.822663	0.989304
930.126381	0.989406
930.430060	0.989502
930.733699	0.988821
931.037299	0.988170
931.340861	0.990181
931.644383	0.988764
931.947866	0.988466
932.251309	0.989981
932.554714	0.989659
932.858080	0.990465
933.161407	0.990172
933.464694	0.989901
933.767943	0.989420
934.071153	0.989213
934.374323	0.991065
934.677455	0.989968
934.980548	0.991011
935.283602	0.989579
935.586617	0.990743
935.889593	0.988742
936.192530	0.989475
936.495428	0.989504
936.798287	0.989866
937.101108	0.989363
937.403890	0.988615
937.706632	0.988309
938.009336	0.986159
938.312002	0.985224
938.614628	0.982669
938.917216	0.982229
939.219765	0.980565
939.522275	0.981958
939.824747	0.981793
940.127179	0.983084
940.429573	0.983482
940.731929	0.982706
941.034246	0.983878
941.336524	0.983571
941.638763	0.984231
941.940964	0.984492
942.243126	0.984790
942.545250	0.985628
942.847335	0.986974
943.149381	0.986678
943.451389	0.986796
943.753359	0.987436
944.055290	0.990923
944.357182	0.988490
944.659036	0.987397
944.960851	0.988237
945.262628	0.989879
945.564367	0.989234
945.866067	0.989585
946.167729	0.988168
946.469352	0.989688
946.770937	0.987214
947.072484	0.989217
947.373992	0.989058
947.675462	0.989698
947.976893	0.989351
948.278286	0.989561
948.579641	0.990272
948.880958	0.990090
949.182236	0.990849
949.483476	0.990876
949.784678	0.990041
950.085841	0.990997
950.386967	0.990569
950.688054	0.989540
950.989103	0.990155
951.290114	0.987525
951.591087	0.988503
951.892021	0.988704
952.192917	0.988072
952.493776	0.987345
952.794596	0.987056
953.095378	0.986760
953.396122	0.986775
953.696828	0.986942
953.997496	0.988761
954.298126	0.990188
954.598718	0.989436
954.899272	0.991686
955.199788	0.988911
955.500266	0.991579
955.800706	0.992969
956.101108	0.993105
956.401472	0.992738
956.701798	0.994084
957.002087	0.991568
957.302337	0.992900
957.602550	0.994331
957.902724	0.993998
958.202861	0.994930
958.502960	0.994716
958.803022	0.993335
959.103045	0.996676
959.403031	0.995273
959.702979	0.995010
960.002889	0.995372
960.302762	0.994504
960.602596	0.994893
960.902393	0.993887
961.202153	0.996030
961.501875	0.996016
961.801559	0.995659
962.101205	0.995549
962.400814	0.995627
962.700385	0.994797
962.999918	0.994987
963.299414	0.995967
963.598873	0.995631
963.898293	0.995228
964.197677	0.995942
964.497022	0.995538
964.796331	0.996030
965.095601	0.996521
965.394835	0.996657
965.694030	0.996167
965.993189	0.996771
966.292309	0.995957
966.591393	0.996905
966.890439	0.995865
967.189447	0.996309
967.488419	0.996265
967.787353	0.994742
968.086249	0.995630
968.385108	0.996621
968.683930	0.997573
968.982714	0.996966
969.281462	0.996579
969.580172	0.996290
969.878844	0.997606
970.177480	0.995652
970.476078	0.995986
970.774639	0.997118
971.073162	0.996049
971.371649	0.996131
971.670098	0.995057
971.968510	0.997154
972.266885	0.995227
972.565223	0.996292
972.863524	0.994738
973.161788	0.995671
973.460014	0.996315
973.758204	0.995285
974.056356	0.995003
974.354471	0.994183
974.652550	0.996232
974.950591	0.995696
975.248595	0.997695
975.546563	0.996266
975.844493	0.997782
976.142386	0.997035
976.440243	0.996558
976.738062	0.996644
977.035845	0.997495
977.333590	0.996712
977.631299	0.996626
977.928971	0.996716
978.226606	0.994921
978.524204	0.995727
978.821765	0.997790
979.119290	0.996088
979.416777	0.996583
979.714228	0.996296
980.011642	0.995086
980.309020	0.997003
980.606360	0.996559
980.903664	0.997889
981.200931	0.995951
981.498162	0.995725
981.795356	0.994533
982.092513	0.993140
982.389633	0.994079
982.686717	0.990912
982.983764	0.990774
983.280775	0.989306
983.577749	0.989936
983.874686	0.991099
984.171587	0.990226
984.468451	0.993249
984.765279	0.994422
985.062070	0.993868
985.358824	0.996573
985.655543	0.994468
985.952224	0.995753
986.248869	0.996435
986.545478	0.995168
986.842050	0.998589
987.138586	0.994624
987.435086	0.996271
987.731549	0.998575
988.027975	0.996992
988.324366	0.997604
988.620719	0.998434
988.917037	0.995435
989.213318	0.998096
989.509563	0.999058
989.805772	0.997858
990.101944	0.997895
990.398080	0.996170
990.694180	0.998258
990.990244	0.997472
991.286271	0.996360
991.582262	0.997296
991.878217	0.996841
992.174136	0.998138
992.470019	0.999301
992.765865	0.997408
993.061676	0.998133
993.357450	0.996968
993.653188	0.996622
993.948890	0.996330
994.244556	0.997688
994.540186	0.996332
994.835780	0.996267
995.131337	0.996945
995.426859	0.996257
995.722345	0.996987
996.017795	0.996105
996.313208	0.996047
996.608586	0.995580
996.903928	0.996493
997.199234	0.995889
997.494504	0.996100
997.789738	0.996179
998.084936	0.995777
998.380099	0.997142
998.675225	0.996738
998.970316	0.996745
999.265371	0.997699
999.560390	0.997983
999.855373	0.998095
1000.150320	0.999054
1000.445232	0.997531
1000.740108	0.997409
1001.034948	0.997434
1001.329752	0.998679
1001.624521	0.998663
1001.919254	0.998905
1002.213951	0.998307
1002.508613	0.998283
1002.803239	0.998627
1003.097829	0.998870
1003.392384	0.998446
1003.686903	0.998016
1003.981386	0.998172
1004.275834	0.998864
1004.570246	0.998223
1004.864623	0.999015
1005.158964	0.998654
1005.453270	0.999496
1005.747540	0.997899
1006.041775	0.998057
1006.335974	0.998573
1006.630138	0.998659
1006.924266	0.998166
1007.218359	0.999984
1007.512416	0.999152
1007.806438	0.998935
1008.100425	0.999144
1008.394376	0.999571
1008.688292	0.997958
1008.982172	0.999249
1009.276017	0.998218
1009.569827	0.998928
1009.863602	0.997835
1010.157341	0.999115
1010.451045	0.998473
1010.744714	0.998784
1011.038347	0.999689
1011.331945	0.998723
1011.625508	0.997546
1011.919036	0.998800
1012.212528	0.998227
1012.505986	0.996785
1012.799408	0.998893
1013.092795	0.999587
1013.386147	0.998533
1013.679464	0.998455
1013.972745	0.997925
1014.265992	0.996811
1014.559204	0.998940
1014.852380	0.999781
1015.145521	0.999234
1015.438628	0.998331
1015.731699	0.997547
1016.024736	0.997690
1016.317737	0.999325
1016.610703	0.999458
1016.903635	0.998429
1017.196531	0.999005
1017.489393	0.998759
1017.782219	0.999323
1018.075011	0.997993
1018.367768	0.998732
1018.660490	0.998610
1018.953177	0.998610
1019.245829	0.998610
