Dividing Wavelength (nm)	Counts (n)	Blue Motor Position (mm): 0.000000	Red Motor Position (mm): 17.700000	
326.493990	1.000455
326.888308	1.000455
327.282561	1.000455
327.676750	1.000290
328.070874	1.000251
328.464933	1.000891
328.858929	1.000560
329.252859	1.000405
329.646726	0.999572
330.040528	1.000627
330.434265	0.999947
330.827938	1.001412
331.221547	1.002084
331.615091	1.000858
332.008571	1.000437
332.401986	1.001043
332.795338	1.000752
333.188625	0.998858
333.581847	1.001884
333.975006	0.998843
334.368100	0.999293
334.761129	1.000018
335.154095	1.001774
335.546996	0.997640
335.939833	0.995151
336.332606	0.993670
336.725315	0.995845
337.117960	0.995688
337.510540	0.994669
337.903056	0.994674
338.295508	0.994900
338.687896	0.994795
339.080220	0.994669
339.472480	0.995421
339.864676	0.994512
340.256807	0.995261
340.648875	0.996135
341.040879	0.995612
341.432818	0.995584
341.824694	0.994550
342.216506	0.996364
342.608253	0.996456
342.999937	0.993701
343.391557	0.994134
343.783113	0.994812
344.174605	0.994586
344.566033	0.995556
344.957397	0.993947
345.348697	0.994120
345.739934	0.993993
346.131106	0.994892
346.522215	0.993964
346.913260	0.995146
347.304241	0.994423
347.695159	0.994077
348.086012	0.993771
348.476802	0.994037
348.867528	0.994348
349.258191	0.993208
349.648789	0.994601
350.039324	0.995271
350.429796	0.995536
350.820203	0.995703
351.210548	0.994739
351.600828	0.994555
351.991045	0.994634
352.381198	0.992788
352.771288	0.995348
353.161314	0.994505
353.551276	0.995630
353.941175	0.995089
354.331010	0.994520
354.720782	0.994665
355.110490	0.994741
355.500135	0.995765
355.889717	0.994741
356.279235	0.993114
356.668689	0.994522
357.058080	0.994173
357.447408	0.994744
357.836672	0.996193
358.225873	0.995392
358.615010	0.995064
359.004084	0.995919
359.393095	0.994709
359.782043	0.994420
360.170927	0.995655
360.559748	0.994818
360.948505	0.993815
361.337199	0.994477
361.725830	0.995649
362.114398	0.993898
362.502903	0.995050
362.891344	0.995969
363.279722	0.994487
363.668037	0.995322
364.056289	0.994803
364.444478	0.996422
364.832603	0.993727
365.220665	0.994060
365.608665	0.995084
365.996601	0.994501
366.384474	0.994506
366.772284	0.995596
367.160031	0.992637
367.547715	0.993982
367.935336	0.995236
368.322893	0.995024
368.710388	0.994453
369.097820	0.993665
369.485189	0.993280
369.872495	0.993095
370.259738	0.994141
370.646918	0.994765
371.034035	0.994673
371.421090	0.994856
371.808081	0.993730
372.195010	0.994730
372.581875	0.994088
372.968678	0.994411
373.355418	0.994876
373.742096	0.993575
374.128710	0.995333
374.515262	0.994297
374.901751	0.995070
375.288177	0.994528
375.674540	0.996178
376.060841	0.994469
376.447079	0.994977
376.833254	0.994979
377.219367	0.994109
377.605417	0.995116
377.991404	0.994730
378.377329	0.994391
378.763191	0.994519
379.148991	0.996089
379.534727	0.994946
379.920402	0.995464
380.306013	0.995556
380.691563	0.995323
381.077049	0.994341
381.462474	0.995619
381.847835	0.995670
382.233134	0.995057
382.618371	0.994347
383.003545	0.995734
383.388657	0.995040
383.773706	0.995464
384.158693	0.995268
384.543618	0.995045
384.928480	0.996230
385.313280	0.995527
385.698017	0.995609
386.082692	0.996563
386.467305	0.995309
386.851856	0.994995
387.236344	0.994362
387.620770	0.995153
388.005133	0.995791
388.389435	0.994791
388.773674	0.995528
389.157851	0.994802
389.541965	0.995888
389.926018	0.994544
390.310008	0.996929
390.693936	0.995218
391.077802	0.995419
391.461606	0.995641
391.845348	0.995869
392.229027	0.995014
392.612645	0.995246
392.996200	0.996379
393.379694	0.995760
393.763125	0.996030
394.146494	0.995799
394.529801	0.995238
394.913047	0.995016
395.296230	0.994629
395.679351	0.994986
396.062410	0.994560
396.445408	0.995066
396.828343	0.994040
397.211217	0.994844
397.594028	0.995271
397.976778	0.994524
398.359466	0.994207
398.742092	0.994225
399.124656	0.994202
399.507158	0.994527
399.889598	0.993692
400.271977	0.994646
400.654294	0.994606
401.036549	0.994055
401.418742	0.993148
401.800874	0.991645
402.182944	0.991189
402.564952	0.989858
402.946898	0.991604
403.328783	0.989218
403.710606	0.988315
404.092367	0.985731
404.474067	0.984784
404.855705	0.982547
405.237282	0.980822
405.618797	0.977750
406.000250	0.973677
406.381642	0.971683
406.762972	0.968872
407.144240	0.966521
407.525447	0.962327
407.906593	0.957955
408.287677	0.954345
408.668700	0.950689
409.049661	0.944283
409.430560	0.939401
409.811399	0.935229
410.192176	0.927847
410.572891	0.923755
410.953545	0.916340
411.334138	0.912007
411.714669	0.905588
412.095139	0.901492
412.475547	0.892534
412.855894	0.886251
413.236180	0.878612
413.616405	0.873561
413.996568	0.864235
414.376670	0.856900
414.756711	0.851379
415.136691	0.843503
415.516609	0.832537
415.896466	0.823280
416.276262	0.812355
416.655997	0.805679
417.035670	0.789420
417.415283	0.778065
417.794834	0.770316
418.174324	0.765376
418.553753	0.761106
418.933121	0.742900
419.312428	0.730689
419.691674	0.724320
420.070859	0.708974
420.449983	0.705087
420.829045	0.689836
421.208047	0.687563
421.586988	0.673309
421.965867	0.664315
422.344686	0.647668
422.723444	0.647944
423.102141	0.651665
423.480777	0.625108
423.859352	0.630874
424.237866	0.606935
424.616319	0.601109
424.994712	0.586715
425.373044	0.587209
425.751314	0.570509
426.129524	0.576174
426.507673	0.556725
426.885762	0.545483
427.263789	0.542990
427.641756	0.546315
428.019662	0.532188
428.397508	0.526266
428.775292	0.523877
429.153016	0.512641
429.530679	0.513315
429.908282	0.502821
430.285824	0.507552
430.663305	0.483996
431.040726	0.499254
431.418086	0.496470
431.795385	0.485426
432.172624	0.480437
432.549802	0.479025
432.926920	0.474565
433.303977	0.471901
433.680974	0.467111
434.057910	0.462837
434.434786	0.460985
434.811601	0.461114
435.188355	0.442024
435.565050	0.449739
435.941683	0.449707
436.318257	0.433496
436.694770	0.432298
437.071222	0.429742
437.447614	0.433193
437.823946	0.438855
438.200218	0.427335
438.576429	0.436070
438.952580	0.429003
439.328670	0.425455
439.704700	0.431764
440.080670	0.432036
440.456580	0.412457
440.832429	0.420229
441.208218	0.430688
441.583947	0.419766
441.959616	0.419380
442.335224	0.423758
442.710773	0.415174
443.086261	0.412573
443.461689	0.426436
443.837057	0.416582
444.212365	0.405785
444.587612	0.412279
444.962800	0.402681
445.337927	0.404065
445.712995	0.430058
446.088002	0.392607
446.462949	0.402839
446.837837	0.407357
447.212664	0.396532
447.587431	0.387554
447.962139	0.358279
448.336786	0.317866
448.711374	0.327627
449.085901	0.371783
449.460369	0.376455
449.834776	0.379576
450.209124	0.359194
450.583412	0.351505
450.957640	0.344298
451.331808	0.355894
451.705917	0.379240
452.079965	0.383691
452.453954	0.371737
452.827883	0.378771
453.201752	0.373761
453.575562	0.384992
453.949311	0.373296
454.323001	0.379521
454.696632	0.374872
455.070202	0.368212
455.443713	0.359875
455.817164	0.354772
456.190556	0.350324
456.563888	0.347142
456.937160	0.345401
457.310373	0.362413
457.683526	0.360523
458.056619	0.366828
458.429653	0.367362
458.802628	0.370527
459.175542	0.364910
459.548398	0.347436
459.921194	0.340118
460.293930	0.340434
460.666607	0.317670
461.039224	0.305957
461.411782	0.301933
461.784280	0.301206
462.156719	0.305266
462.529099	0.309828
462.901419	0.325392
463.273680	0.330014
463.645882	0.329460
464.018024	0.335275
464.390106	0.328195
464.762130	0.312837
465.134094	0.295786
465.505999	0.265135
465.877845	0.235741
466.249631	0.222964
466.621358	0.230352
466.993026	0.243960
467.364634	0.250341
467.736184	0.259280
468.107674	0.267762
468.479105	0.267000
468.850477	0.273689
469.221790	0.280514
469.593043	0.290709
469.964238	0.295403
470.335373	0.294888
470.706449	0.293084
471.077467	0.293780
471.448425	0.255951
471.819324	0.231854
472.190164	0.231063
472.560945	0.259805
472.931667	0.281846
473.302330	0.286304
473.672934	0.297626
474.043479	0.285970
474.413965	0.287977
474.784393	0.291315
475.154761	0.286738
475.525070	0.283204
475.895321	0.289412
476.265513	0.284102
476.635645	0.278910
477.005719	0.278798
477.375734	0.275341
477.745691	0.269049
478.115588	0.265230
478.485427	0.258795
478.855207	0.245987
479.224928	0.228293
479.594591	0.216431
479.964194	0.220023
480.333739	0.221320
480.703226	0.222602
481.072653	0.221025
481.442022	0.216661
481.811333	0.213156
482.180584	0.216687
482.549777	0.222075
482.918912	0.225219
483.287988	0.225107
483.657005	0.224466
484.025964	0.231337
484.394864	0.228528
484.763706	0.229220
485.132489	0.233999
485.501213	0.234867
485.869879	0.232871
486.238487	0.236270
486.607036	0.233983
486.975527	0.238592
487.343959	0.234440
487.712333	0.233770
488.080648	0.234767
488.448905	0.234119
488.817104	0.235401
489.185244	0.229869
489.553326	0.226675
489.921350	0.216630
490.289315	0.199113
490.657222	0.194261
491.025070	0.195287
491.392861	0.197212
491.760593	0.203058
492.128267	0.208807
492.495883	0.214293
492.863440	0.220250
493.230939	0.226815
493.598380	0.227783
493.965763	0.230420
494.333088	0.232180
494.700354	0.234321
495.067563	0.232911
495.434713	0.236248
495.801805	0.234176
496.168839	0.235769
496.535815	0.237202
496.902733	0.236946
497.269593	0.238567
497.636395	0.236278
498.003139	0.236597
498.369825	0.239787
498.736453	0.236283
499.103023	0.237557
499.469535	0.236863
499.835989	0.237331
500.202385	0.238036
500.568723	0.241524
500.935003	0.236555
501.301226	0.241093
501.667390	0.234978
502.033497	0.233258
502.399546	0.236193
502.765537	0.238171
503.131470	0.236396
503.497345	0.232691
503.863163	0.241615
504.228923	0.234412
504.594625	0.233050
504.960269	0.238587
505.325856	0.233800
505.691385	0.238036
506.056856	0.235070
506.422270	0.234296
506.787625	0.236837
507.152924	0.234308
507.518164	0.234667
507.883347	0.236303
508.248472	0.238322
508.613540	0.233203
508.978550	0.235552
509.343503	0.236195
509.708398	0.233680
510.073236	0.231465
510.438016	0.231451
510.802738	0.232298
511.167403	0.231319
511.532010	0.233301
511.896561	0.228691
512.261053	0.227704
512.625488	0.229506
512.989866	0.230020
513.354186	0.230161
513.718449	0.232026
514.082655	0.228402
514.446803	0.230746
514.810894	0.228155
515.174927	0.230956
515.538904	0.230421
515.902822	0.227172
516.266684	0.229815
516.630488	0.230733
516.994235	0.229585
517.357925	0.228467
517.721558	0.226720
518.085133	0.226315
518.448651	0.226499
518.812112	0.228582
519.175516	0.228088
519.538863	0.226122
519.902152	0.227247
520.265385	0.224415
520.628560	0.225818
520.991678	0.226420
521.354739	0.225587
521.717743	0.226448
522.080690	0.227288
522.443580	0.224343
522.806413	0.225125
523.169189	0.224758
523.531908	0.223476
523.894569	0.227030
524.257174	0.227053
524.619722	0.224717
524.982213	0.225942
525.344647	0.224838
525.707025	0.225540
526.069345	0.223546
526.431608	0.225518
526.793815	0.223199
527.155964	0.227643
527.518057	0.226689
527.880093	0.227326
528.242072	0.226076
528.603995	0.227760
528.965860	0.229454
529.327669	0.228338
529.689421	0.229257
530.051117	0.229980
530.412755	0.227956
530.774337	0.230242
531.135862	0.230403
531.497331	0.229678
531.858743	0.232851
532.220098	0.229593
532.581396	0.231771
532.942638	0.232592
533.303824	0.233497
533.664953	0.233352
534.026025	0.234892
534.387040	0.232805
534.747999	0.232724
535.108902	0.231779
535.469748	0.236813
535.830537	0.234386
536.191270	0.235043
536.551947	0.234624
536.912567	0.234503
537.273131	0.236357
537.633638	0.236312
537.994089	0.236924
538.354483	0.237863
538.714821	0.234794
539.075103	0.234562
539.435328	0.235344
539.795497	0.239067
540.155609	0.235689
540.515665	0.233623
540.875665	0.239419
541.235609	0.238026
541.595496	0.238010
541.955328	0.234545
542.315102	0.237328
542.674821	0.238396
543.034483	0.238146
543.394090	0.238060
543.753640	0.239855
544.113134	0.234824
544.472571	0.238237
544.831953	0.235139
545.191278	0.239067
545.550548	0.238682
545.909761	0.235381
546.268918	0.236157
546.628019	0.234458
546.987064	0.237087
547.346053	0.239178
547.704986	0.237003
548.063863	0.237188
548.422684	0.237337
548.781449	0.239257
549.140158	0.236855
549.498811	0.239618
549.857408	0.242895
550.215949	0.237544
550.574434	0.240625
550.932864	0.238556
551.291237	0.236985
551.649555	0.238651
552.007817	0.238322
552.366022	0.239278
552.724173	0.239560
553.082267	0.239676
553.440305	0.236829
553.798288	0.241158
554.156215	0.237632
554.514086	0.238326
554.871902	0.241580
555.229661	0.240740
555.587365	0.241045
555.945014	0.243843
556.302606	0.240699
556.660143	0.243216
557.017625	0.239656
557.375050	0.241832
557.732421	0.238972
558.089735	0.240911
558.446994	0.241056
558.804197	0.240093
559.161345	0.240180
559.518437	0.243845
559.875474	0.240991
560.232455	0.240768
560.589381	0.241741
560.946251	0.241933
561.303065	0.239574
561.659825	0.241190
562.016528	0.242534
562.373177	0.245262
562.729770	0.242656
563.086307	0.244844
563.442789	0.242453
563.799216	0.245381
564.155587	0.244108
564.511904	0.244923
564.868164	0.245363
565.224370	0.245312
565.580520	0.246916
565.936615	0.246590
566.292654	0.249522
566.648638	0.246717
567.004567	0.247754
567.360441	0.248190
567.716260	0.250562
568.072023	0.248033
568.427732	0.248670
568.783385	0.251319
569.138982	0.249339
569.494525	0.248865
569.850013	0.251652
570.205445	0.250236
570.560823	0.252688
570.916145	0.254852
571.271412	0.252948
571.626625	0.254342
571.981782	0.254800
572.336884	0.255781
572.691931	0.255674
573.046923	0.256636
573.401860	0.258007
573.756743	0.259676
574.111570	0.258576
574.466342	0.258906
574.821059	0.258104
575.175722	0.261011
575.530330	0.260670
575.884882	0.260904
576.239380	0.262873
576.593823	0.263536
576.948211	0.263062
577.302544	0.266243
577.656823	0.266079
578.011047	0.265942
578.365216	0.266498
578.719330	0.268840
579.073389	0.268151
579.427394	0.269703
579.781344	0.270325
580.135239	0.272029
580.489080	0.271603
580.842866	0.274491
581.196597	0.274711
581.550273	0.273227
581.903895	0.274323
582.257463	0.272445
582.610975	0.275863
582.964434	0.275032
583.317837	0.277194
583.671186	0.277273
584.024481	0.277912
584.377721	0.280495
584.730906	0.281204
585.084037	0.279990
585.437113	0.281689
585.790135	0.281573
586.143103	0.284619
586.496016	0.285663
586.848874	0.283222
587.201679	0.283701
587.554428	0.287169
587.907124	0.285775
588.259765	0.286256
588.612352	0.286951
588.964884	0.291068
589.317362	0.290091
589.669786	0.290014
590.022155	0.288712
590.374470	0.288382
590.726731	0.290092
591.078937	0.295044
591.431090	0.291582
591.783188	0.295603
592.135232	0.296164
592.487222	0.295864
592.839157	0.294087
593.191038	0.296412
593.542866	0.298448
593.894639	0.302238
594.246358	0.299668
594.598022	0.299260
594.949633	0.302940
595.301190	0.303615
595.652692	0.302553
596.004141	0.299228
596.355535	0.307002
596.706876	0.307474
597.058162	0.310238
597.409395	0.307336
597.760573	0.304940
598.111698	0.308323
598.462768	0.308708
598.813785	0.309900
599.164748	0.311257
599.515657	0.311350
599.866511	0.315044
600.217312	0.309921
600.568060	0.315593
600.918753	0.311633
601.269392	0.312524
601.619978	0.316009
601.970510	0.313534
602.320988	0.313784
602.671412	0.311721
603.021783	0.314221
603.372100	0.315337
603.722363	0.315344
604.072572	0.315910
604.422728	0.315829
604.772830	0.317815
605.122878	0.317236
605.472872	0.317893
605.822813	0.316307
606.172701	0.318902
606.522534	0.316097
606.872314	0.316429
607.222041	0.317197
607.571714	0.315759
607.921333	0.316823
608.270899	0.316540
608.620411	0.313382
608.969870	0.317104
609.319276	0.317233
609.668627	0.317150
610.017926	0.315776
610.367171	0.314277
610.716362	0.314948
611.065500	0.315409
611.414585	0.313940
611.763616	0.314167
612.112594	0.315112
612.461518	0.314365
612.810389	0.311804
613.159207	0.314359
613.507971	0.316169
613.856682	0.312029
614.205340	0.313287
614.553945	0.310064
614.902496	0.314177
615.250994	0.312465
615.599439	0.313135
615.947830	0.312213
616.296169	0.313570
616.644454	0.312897
616.992686	0.312767
617.340864	0.310764
617.688990	0.314292
618.037063	0.311032
618.385082	0.313017
618.733048	0.309910
619.080961	0.312124
619.428821	0.311585
619.776628	0.310956
620.124382	0.313256
620.472083	0.313014
620.819731	0.312574
621.167326	0.316908
621.514868	0.316033
621.862357	0.320728
622.209793	0.320306
622.557176	0.322212
622.904506	0.323263
623.251783	0.325827
623.599007	0.327981
623.946179	0.327695
624.293297	0.329641
624.640363	0.333322
624.987376	0.334027
625.334336	0.336519
625.681243	0.339008
626.028097	0.339438
626.374899	0.340292
626.721647	0.340313
627.068343	0.343836
627.414987	0.344854
627.761577	0.346890
628.108115	0.345526
628.454600	0.350077
628.801032	0.348094
629.147412	0.349790
629.493739	0.350390
629.840014	0.353271
630.186236	0.350867
630.532405	0.356086
630.878521	0.353786
631.224585	0.355891
631.570597	0.360115
631.916556	0.357819
632.262462	0.358373
632.608316	0.360244
632.954117	0.361349
633.299866	0.362160
633.645562	0.362186
633.991206	0.366652
634.336797	0.369775
634.682336	0.371538
635.027823	0.373474
635.373257	0.374444
635.718639	0.377303
636.063968	0.376898
636.409245	0.382844
636.754470	0.383233
637.099642	0.385614
637.444762	0.388665
637.789829	0.388117
638.134845	0.391610
638.479808	0.392394
638.824719	0.391724
639.169577	0.396338
639.514383	0.394965
639.859137	0.399143
640.203839	0.399005
640.548489	0.399496
640.893086	0.401100
641.237632	0.402653
641.582125	0.400889
641.926566	0.402678
642.270955	0.403280
642.615292	0.403318
642.959576	0.402352
643.303809	0.402652
643.647990	0.402392
643.992118	0.402851
644.336195	0.406739
644.680219	0.404915
645.024192	0.405799
645.368112	0.399337
645.711981	0.397952
646.055797	0.393399
646.399562	0.395804
646.743274	0.387886
647.086935	0.385361
647.430544	0.385580
647.774101	0.384246
648.117606	0.384347
648.461059	0.384135
648.804460	0.387037
649.147810	0.392132
649.491108	0.394535
649.834354	0.395211
650.177548	0.401268
650.520690	0.406122
650.863781	0.407121
651.206820	0.406693
651.549807	0.411525
651.892742	0.415061
652.235626	0.414398
652.578458	0.415547
652.921238	0.421724
653.263967	0.419710
653.606644	0.423518
653.949269	0.423396
654.291843	0.427019
654.634365	0.424036
654.976836	0.427180
655.319255	0.427146
655.661622	0.428813
656.003938	0.428834
656.346203	0.432475
656.688416	0.429301
657.030577	0.433266
657.372687	0.435258
657.714746	0.435423
658.056753	0.432184
658.398708	0.437376
658.740612	0.437828
659.082465	0.434106
659.424266	0.434637
659.766016	0.433473
660.107715	0.436337
660.449362	0.435508
660.790958	0.436567
661.132503	0.436459
661.473996	0.434265
661.815438	0.435547
662.156829	0.435648
662.498168	0.436353
662.839456	0.437822
663.180693	0.435203
663.521879	0.435030
663.863013	0.436293
664.204097	0.434966
664.545129	0.431374
664.886110	0.432376
665.227040	0.429259
665.567918	0.431653
665.908746	0.430082
666.249522	0.429581
666.590248	0.431134
666.930922	0.429030
667.271545	0.426993
667.612118	0.427643
667.952639	0.429420
668.293109	0.427796
668.633528	0.430445
668.973896	0.430871
669.314213	0.431061
669.654480	0.432839
669.994695	0.433336
670.334859	0.433518
670.674973	0.434084
671.015035	0.434674
671.355047	0.434353
671.695008	0.435180
672.034918	0.437085
672.374777	0.436415
672.714585	0.437763
673.054342	0.437856
673.394049	0.437773
673.733705	0.435729
674.073310	0.436296
674.412864	0.439618
674.752368	0.439888
675.091820	0.440586
675.431223	0.445035
675.770574	0.444170
676.109875	0.447803
676.449125	0.447182
676.788324	0.449680
677.127473	0.455398
677.466571	0.455072
677.805619	0.456502
678.144616	0.458080
678.483562	0.458778
678.822458	0.461180
679.161303	0.463313
679.500098	0.463249
679.838842	0.465277
680.177535	0.464242
680.516179	0.463151
680.854771	0.462809
681.193314	0.455870
681.531805	0.447297
681.870247	0.435599
682.208638	0.428342
682.546978	0.426840
682.885268	0.428746
683.223508	0.434990
683.561697	0.438700
683.899836	0.441331
684.237925	0.444862
684.575963	0.446754
684.913951	0.450348
685.251889	0.446104
685.589776	0.447484
685.927614	0.450962
686.265401	0.444661
686.603137	0.445745
686.940824	0.440089
687.278460	0.438700
687.616046	0.437729
687.953582	0.432296
688.291068	0.434405
688.628504	0.429723
688.965889	0.431854
689.303224	0.435567
689.640510	0.440482
689.977745	0.445926
690.314930	0.453792
690.652065	0.457810
690.989150	0.465859
691.326185	0.472225
691.663170	0.476657
692.000105	0.483765
692.336990	0.491102
692.673825	0.493048
693.010610	0.500198
693.347345	0.505957
693.684030	0.507478
694.020665	0.512345
694.357251	0.520601
694.693786	0.520777
695.030272	0.524964
695.366707	0.527969
695.703093	0.532107
696.039429	0.529237
696.375716	0.531159
696.711952	0.533735
697.048139	0.535865
697.384276	0.537896
697.720363	0.536665
698.056400	0.535463
698.392388	0.540661
698.728326	0.543425
699.064214	0.546561
699.400053	0.547289
699.735842	0.551001
700.071581	0.553894
700.407270	0.556572
700.742910	0.559565
701.078501	0.566114
701.414042	0.565506
701.749533	0.568972
702.084974	0.577989
702.420366	0.570019
702.755709	0.577239
703.091002	0.585116
703.426246	0.579099
703.761440	0.584841
704.096584	0.589987
704.431679	0.586738
704.766725	0.588378
705.101721	0.590574
705.436668	0.586606
705.771565	0.593684
706.106413	0.589525
706.441212	0.585458
706.775961	0.585069
707.110661	0.587330
707.445311	0.583278
707.779913	0.580093
708.114465	0.579462
708.448967	0.576098
708.783421	0.568039
709.117825	0.562769
709.452180	0.562324
709.786485	0.556162
710.120742	0.546487
710.454949	0.547788
710.789107	0.539904
711.123216	0.531140
711.457275	0.532420
711.791286	0.524355
712.125247	0.522322
712.459159	0.532969
712.793023	0.526109
713.126837	0.530154
713.460602	0.531024
713.794318	0.539663
714.127985	0.539269
714.461602	0.548734
714.795171	0.551584
715.128691	0.559813
715.462162	0.567037
715.795584	0.573173
716.128957	0.575832
716.462281	0.582856
716.795556	0.586549
717.128782	0.591047
717.461960	0.601289
717.795088	0.598842
718.128167	0.605323
718.461198	0.614264
718.794180	0.614623
719.127113	0.617481
719.459997	0.620709
719.792833	0.627460
720.125619	0.628439
720.458357	0.634670
720.791046	0.634098
721.123686	0.637243
721.456278	0.644364
721.788821	0.640808
722.121315	0.645387
722.453761	0.649676
722.786158	0.647681
723.118506	0.644597
723.450805	0.652040
723.783056	0.648211
724.115259	0.645558
724.447412	0.644798
724.779518	0.646642
725.111574	0.645684
725.443582	0.640720
725.775542	0.642336
726.107453	0.635370
726.439315	0.634368
726.771129	0.633995
727.102895	0.626556
727.434612	0.619703
727.766281	0.617786
728.097901	0.616930
728.429473	0.617073
728.760996	0.615260
729.092471	0.615434
729.423897	0.618961
729.755276	0.618612
730.086606	0.618408
730.417887	0.612569
730.749120	0.603724
731.080305	0.594006
731.411442	0.590036
731.742530	0.594841
732.073570	0.593969
732.404562	0.586970
732.735506	0.588562
733.066401	0.592994
733.397249	0.601961
733.728048	0.613569
734.058798	0.625468
734.389501	0.636766
734.720156	0.646695
735.050762	0.654884
735.381320	0.655327
735.711831	0.664725
736.042293	0.669387
736.372707	0.664519
736.703073	0.669533
737.033391	0.672710
737.363661	0.668463
737.693883	0.663882
738.024056	0.663707
738.354182	0.663247
738.684260	0.652956
739.014290	0.649206
739.344272	0.650128
739.674207	0.642813
740.004093	0.642593
740.333931	0.643827
740.663722	0.642726
740.993464	0.643858
741.323159	0.646906
741.652806	0.652883
741.982405	0.657192
742.311956	0.662578
742.641460	0.663654
742.970915	0.667783
743.300323	0.675247
743.629683	0.681016
743.958996	0.683528
744.288260	0.688351
744.617477	0.693617
744.946647	0.695394
745.275768	0.700472
745.604842	0.700845
745.933869	0.710289
746.262847	0.710336
746.591778	0.704939
746.920662	0.710884
747.249498	0.717468
747.578286	0.708634
747.907027	0.704348
748.235720	0.704988
748.564365	0.700140
748.892963	0.700488
749.221514	0.702161
749.550017	0.708412
749.878473	0.707745
750.206881	0.714067
750.535242	0.715352
750.863555	0.715774
751.191821	0.716679
751.520039	0.719914
751.848210	0.724655
752.176334	0.716787
752.504411	0.715925
752.832440	0.723520
753.160421	0.728057
753.488356	0.727130
753.816243	0.723580
754.144082	0.732372
754.471875	0.735625
754.799620	0.731403
755.127318	0.731698
755.454969	0.732196
755.782572	0.731653
756.110129	0.736774
756.437638	0.739613
756.765100	0.736212
757.092515	0.733743
757.419882	0.732305
757.747203	0.738400
758.074477	0.737686
758.401703	0.734523
758.728882	0.729376
759.056014	0.729449
759.383099	0.727090
759.710138	0.728542
760.037129	0.725662
760.364073	0.718848
760.690970	0.721935
761.017820	0.727207
761.344623	0.723307
761.671379	0.713977
761.998088	0.702120
762.324751	0.679404
762.651366	0.638336
762.977935	0.570861
763.304456	0.518037
763.630931	0.508880
763.957359	0.547420
764.283740	0.592441
764.610074	0.619650
764.936362	0.651409
765.262602	0.677653
765.588796	0.698613
765.914943	0.716305
766.241044	0.734978
766.567097	0.742420
766.893104	0.750669
767.219064	0.758115
767.544978	0.763426
767.870845	0.777626
768.196665	0.782319
768.522438	0.780080
768.848165	0.780865
769.173846	0.789146
769.499479	0.794838
769.825066	0.797575
770.150607	0.802659
770.476101	0.797667
770.801548	0.798566
771.126949	0.810615
771.452303	0.813592
771.777611	0.813676
772.102872	0.812542
772.428087	0.817554
772.753256	0.821305
773.078378	0.822533
773.403453	0.831504
773.728482	0.836058
774.053465	0.831368
774.378401	0.832405
774.703291	0.842416
775.028135	0.840863
775.352932	0.842796
775.677683	0.845638
776.002388	0.846364
776.327046	0.845723
776.651658	0.849996
776.976224	0.852969
777.300743	0.852853
777.625216	0.856007
777.949643	0.856862
778.274024	0.857518
778.598359	0.858242
778.922647	0.856392
779.246889	0.858219
779.571086	0.861004
779.895236	0.864187
780.219339	0.861292
780.543397	0.858559
780.867409	0.856464
781.191374	0.858457
781.515294	0.861133
781.839167	0.859345
782.162995	0.861634
782.486776	0.859587
782.810511	0.859797
783.134201	0.863680
783.457844	0.862024
783.781441	0.864694
784.104993	0.871318
784.428498	0.870934
784.751958	0.867061
785.075372	0.868623
785.398739	0.872779
785.722061	0.869477
786.045337	0.864982
786.368568	0.869049
786.691752	0.871417
787.014891	0.857171
787.337983	0.848571
787.661030	0.841535
787.984031	0.823264
788.306987	0.810592
788.629897	0.812842
788.952760	0.816522
789.275579	0.821836
789.598351	0.836882
789.921078	0.849302
790.243759	0.852043
790.566395	0.856983
790.888984	0.862802
791.211529	0.868292
791.534027	0.871675
791.856480	0.874130
792.178888	0.879870
792.501249	0.881799
792.823566	0.883296
793.145836	0.882829
793.468062	0.885083
793.790241	0.885047
794.112375	0.883304
794.434464	0.878211
794.756507	0.877863
795.078505	0.876998
795.400457	0.872513
795.722364	0.860141
796.044226	0.852614
796.366042	0.852598
796.687812	0.856092
797.009538	0.851234
797.331218	0.854718
797.652852	0.858890
797.974442	0.864595
798.295986	0.863868
798.617484	0.867631
798.938938	0.870370
799.260346	0.876105
799.581709	0.877872
799.903026	0.879988
800.224299	0.880236
800.545526	0.885125
800.866708	0.888939
801.187845	0.891621
801.508936	0.891648
801.829983	0.891189
802.150984	0.893511
802.471940	0.897735
802.792851	0.896818
803.113717	0.898684
803.434538	0.896350
803.755314	0.899549
804.076045	0.900014
804.396731	0.900296
804.717372	0.900612
805.037967	0.902767
805.358518	0.899242
805.679024	0.895930
805.999485	0.896641
806.319901	0.897323
806.640272	0.898049
806.960598	0.896612
807.280879	0.893900
807.601115	0.892500
807.921306	0.896711
808.241453	0.895782
808.561554	0.894334
808.881611	0.893559
809.201623	0.896397
809.521590	0.895990
809.841513	0.896765
810.161390	0.896269
810.481223	0.897956
810.801011	0.901718
811.120755	0.902889
811.440453	0.901738
811.760107	0.900842
812.079716	0.900645
812.399281	0.903574
812.718801	0.906153
813.038276	0.907901
813.357707	0.906451
813.677093	0.904589
813.996434	0.907777
814.315731	0.909203
814.634983	0.909290
814.954191	0.908743
815.273354	0.905639
815.592473	0.900785
815.911547	0.900933
816.230577	0.899604
816.549562	0.897023
816.868502	0.897082
817.187399	0.893268
817.506250	0.887816
817.825058	0.890741
818.143821	0.887404
818.462539	0.882797
818.781213	0.873524
819.099843	0.863247
819.418429	0.846230
819.736970	0.828946
820.055466	0.809662
820.373919	0.784595
820.692327	0.751095
821.010691	0.716545
821.329011	0.639224
821.647286	0.522727
821.965517	0.408918
822.283704	0.366561
822.601847	0.367650
822.919945	0.402820
823.237999	0.436786
823.556010	0.484127
823.873976	0.540008
824.191897	0.590857
824.509775	0.633254
824.827609	0.678902
825.145398	0.700799
825.463144	0.704493
825.780845	0.686664
826.098502	0.667909
826.416116	0.622472
826.733685	0.578593
827.051210	0.570300
827.368692	0.584446
827.686129	0.621719
828.003522	0.674592
828.320872	0.721863
828.638177	0.767296
828.955439	0.799237
829.272656	0.821780
829.589830	0.838264
829.906960	0.854637
830.224046	0.867293
830.541088	0.876595
830.858086	0.881214
831.175041	0.887406
831.491952	0.887589
831.808819	0.883240
832.125642	0.876424
832.442421	0.862671
832.759157	0.839820
833.075849	0.794466
833.392497	0.729671
833.709101	0.689443
834.025662	0.698480
834.342179	0.730384
834.658653	0.769795
834.975083	0.804499
835.291469	0.830734
835.607811	0.854168
835.924110	0.871061
836.240366	0.888864
836.556578	0.900527
836.872746	0.908864
837.188871	0.914782
837.504952	0.921526
837.820990	0.923849
838.136984	0.927015
838.452935	0.930950
838.768842	0.932483
839.084706	0.926244
839.400526	0.899426
839.716303	0.859268
840.032037	0.835614
840.347727	0.840547
840.663373	0.858625
840.978977	0.881117
841.294537	0.901930
841.610054	0.918711
841.925527	0.926548
842.240957	0.932431
842.556344	0.940910
842.871687	0.947145
843.186987	0.950960
843.502244	0.950807
843.817458	0.952118
844.132629	0.956180
844.447756	0.960841
844.762840	0.962428
845.077881	0.959880
845.392879	0.959371
845.707833	0.962700
846.022745	0.965628
846.337613	0.965038
846.652438	0.966310
846.967221	0.964837
847.281960	0.964560
847.596656	0.967966
847.911309	0.965853
848.225919	0.968784
848.540485	0.968550
848.855009	0.970097
849.169490	0.968635
849.483928	0.969778
849.798323	0.969251
850.112675	0.970498
850.426984	0.969751
850.741251	0.970773
851.055474	0.970276
851.369654	0.968511
851.683792	0.970539
851.997887	0.970603
852.311938	0.971022
852.625947	0.971011
852.939914	0.968956
853.253837	0.969982
853.567718	0.971523
853.881555	0.970432
854.195350	0.969239
854.509103	0.969393
854.822812	0.970207
855.136479	0.970750
855.450103	0.970410
855.763685	0.969275
856.077224	0.969825
856.390720	0.971678
856.704173	0.970497
857.017584	0.969820
857.330953	0.967710
857.644278	0.968582
857.957561	0.968305
858.270802	0.969330
858.584000	0.968304
858.897155	0.966446
859.210268	0.967657
859.523339	0.969303
859.836367	0.971241
860.149352	0.971240
860.462295	0.969021
860.775195	0.971841
861.088054	0.970224
861.400869	0.969556
861.713642	0.971363
862.026373	0.970879
862.339062	0.972484
862.651708	0.968943
862.964312	0.968380
863.276873	0.969734
863.589392	0.969186
863.901869	0.966402
864.214303	0.964393
864.526696	0.964801
864.839045	0.964567
865.151353	0.962772
865.463619	0.963734
865.775842	0.962792
866.088023	0.962382
866.400162	0.963265
866.712258	0.962066
867.024313	0.962993
867.336325	0.963856
867.648296	0.964282
867.960224	0.963309
868.272110	0.962570
868.583954	0.964291
868.895755	0.964180
869.207515	0.962102
869.519233	0.960174
869.830909	0.961024
870.142542	0.963279
870.454134	0.962024
870.765684	0.960577
871.077191	0.958400
871.388657	0.959344
871.700081	0.957825
872.011463	0.958434
872.322803	0.958763
872.634101	0.957989
872.945357	0.955656
873.256571	0.953097
873.567744	0.953829
873.878874	0.953651
874.189963	0.952841
874.501010	0.951914
874.812015	0.950115
875.122979	0.951243
875.433900	0.953535
875.744780	0.955583
876.055618	0.951580
876.366415	0.950045
876.677169	0.950612
876.987882	0.951829
877.298554	0.950711
877.609183	0.948264
877.919771	0.946181
878.230317	0.942492
878.540822	0.941602
878.851285	0.935611
879.161707	0.927411
879.472087	0.915049
879.782425	0.899357
880.092722	0.864439
880.402977	0.812316
880.713191	0.751628
881.023363	0.692493
881.333494	0.658568
881.643583	0.630086
881.953631	0.630550
882.263637	0.659044
882.573602	0.698128
882.883526	0.723967
883.193408	0.747562
883.503248	0.770138
883.813048	0.797599
884.122806	0.827709
884.432522	0.851281
884.742197	0.870110
885.051831	0.881351
885.361424	0.892446
885.670975	0.903500
885.980485	0.913225
886.289954	0.920303
886.599382	0.925473
886.908768	0.928759
887.218113	0.935604
887.527417	0.939662
887.836680	0.943287
888.145901	0.944497
888.455082	0.947115
888.764221	0.951059
889.073319	0.952624
889.382376	0.953944
889.691392	0.953711
890.000366	0.952983
890.309300	0.954792
890.618193	0.953167
890.927044	0.952056
891.235855	0.951739
891.544625	0.952173
891.853353	0.951845
892.162041	0.949024
892.470687	0.943447
892.779293	0.938690
893.087858	0.934082
893.396381	0.926000
893.704864	0.913205
894.013306	0.889417
894.321707	0.862883
894.630068	0.847924
894.938387	0.843866
895.246665	0.844067
895.554903	0.857406
895.863100	0.870340
896.171256	0.887475
896.479371	0.906386
896.787446	0.919995
897.095480	0.925537
897.403473	0.928012
897.711425	0.933209
898.019336	0.940656
898.327207	0.942668
898.635038	0.944821
898.942827	0.945914
899.250576	0.948085
899.558284	0.951768
899.865952	0.955161
900.173579	0.954436
900.481165	0.955466
900.788711	0.959478
901.096216	0.960923
901.403681	0.961904
901.711105	0.963473
902.018489	0.963378
902.325832	0.962570
902.633135	0.961937
902.940397	0.955912
903.247619	0.943657
903.554800	0.918604
903.861941	0.878970
904.169041	0.842707
904.476101	0.825407
904.783121	0.825687
905.090100	0.843568
905.397039	0.864120
905.703938	0.886643
906.010796	0.905878
906.317614	0.923372
906.624391	0.935212
906.931129	0.944430
907.237826	0.951933
907.544483	0.959445
907.851099	0.962896
908.157675	0.968214
908.464211	0.970995
908.770707	0.972647
909.077163	0.975252
909.383578	0.975378
909.689954	0.975323
909.996289	0.976415
910.302584	0.978804
910.608839	0.980321
910.915054	0.978462
911.221229	0.978910
911.527363	0.977267
911.833458	0.977569
912.139513	0.977923
912.445527	0.975510
912.751502	0.974574
913.057436	0.972551
913.363331	0.970718
913.669186	0.966645
913.975000	0.961291
914.280775	0.955451
914.586510	0.949454
914.892205	0.934486
915.197859	0.913499
915.503475	0.887476
915.809050	0.867283
916.114585	0.860362
916.420081	0.858069
916.725536	0.855341
917.030952	0.864211
917.336328	0.877074
917.641665	0.891958
917.946961	0.907470
918.252218	0.919282
918.557435	0.927580
918.862612	0.937678
919.167750	0.942663
919.472848	0.947243
919.777906	0.953273
920.082925	0.958472
920.387904	0.962299
920.692843	0.964444
920.997743	0.963611
921.302603	0.967478
921.607423	0.969058
921.912204	0.971896
922.216946	0.971919
922.521647	0.974841
922.826310	0.974636
923.130932	0.977625
923.435516	0.979180
923.740059	0.980135
924.044564	0.979120
924.349028	0.981512
924.653454	0.983575
924.957840	0.986533
925.262186	0.984654
925.566493	0.984802
925.870761	0.984911
926.174989	0.987197
926.479178	0.989109
926.783328	0.989435
927.087438	0.988692
927.391509	0.986480
927.695541	0.990398
927.999533	0.990859
928.303486	0.989957
928.607400	0.991611
928.911275	0.989855
929.215110	0.990340
929.518906	0.991986
929.822663	0.990493
930.126381	0.991720
930.430060	0.991620
930.733699	0.990605
931.037299	0.989892
931.340861	0.991649
931.644383	0.990792
931.947866	0.989999
932.251309	0.991665
932.554714	0.990863
932.858080	0.990250
933.161407	0.990220
933.464694	0.992974
933.767943	0.990240
934.071153	0.991613
934.374323	0.993078
934.677455	0.991087
934.980548	0.993068
935.283602	0.990923
935.586617	0.991955
935.889593	0.991672
936.192530	0.990791
936.495428	0.991952
936.798287	0.991640
937.101108	0.989877
937.403890	0.989017
937.706632	0.989163
938.009336	0.987451
938.312002	0.986175
938.614628	0.984685
938.917216	0.984279
939.219765	0.982280
939.522275	0.983916
939.824747	0.984266
940.127179	0.984079
940.429573	0.984739
940.731929	0.984933
941.034246	0.984909
941.336524	0.986040
941.638763	0.986921
941.940964	0.987742
942.243126	0.987080
942.545250	0.988478
942.847335	0.987961
943.149381	0.989230
943.451389	0.989485
943.753359	0.988518
944.055290	0.991068
944.357182	0.989908
944.659036	0.989113
944.960851	0.990737
945.262628	0.990035
945.564367	0.991839
945.866067	0.990662
946.167729	0.990143
946.469352	0.990601
946.770937	0.989148
947.072484	0.992514
947.373992	0.989928
947.675462	0.990880
947.976893	0.989574
948.278286	0.990308
948.579641	0.991885
948.880958	0.990872
949.182236	0.991373
949.483476	0.991944
949.784678	0.990905
950.085841	0.991878
950.386967	0.990373
950.688054	0.991046
950.989103	0.992401
951.290114	0.988526
951.591087	0.989616
951.892021	0.991110
952.192917	0.989748
952.493776	0.988003
952.794596	0.989082
953.095378	0.989131
953.396122	0.988237
953.696828	0.987663
953.997496	0.990626
954.298126	0.990839
954.598718	0.991834
954.899272	0.991165
955.199788	0.990909
955.500266	0.993533
955.800706	0.992689
956.101108	0.993917
956.401472	0.994457
956.701798	0.994861
957.002087	0.992777
957.302337	0.994872
957.602550	0.995561
957.902724	0.994576
958.202861	0.995829
958.502960	0.995858
958.803022	0.995193
959.103045	0.995425
959.403031	0.997015
959.702979	0.995142
960.002889	0.996433
960.302762	0.995205
960.602596	0.996941
960.902393	0.996011
961.202153	0.997165
961.501875	0.997650
961.801559	0.997241
962.101205	0.996530
962.400814	0.997223
962.700385	0.997146
962.999918	0.997253
963.299414	0.997303
963.598873	0.996009
963.898293	0.997647
964.197677	0.996982
964.497022	0.997417
964.796331	0.998447
965.095601	0.996939
965.394835	0.995819
965.694030	0.996858
965.993189	0.997619
966.292309	0.996817
966.591393	0.997914
966.890439	0.998213
967.189447	0.997999
967.488419	0.998432
967.787353	0.996670
968.086249	0.996175
968.385108	0.996463
968.683930	0.997367
968.982714	0.997031
969.281462	0.998099
969.580172	0.997235
969.878844	0.998696
970.177480	0.997123
970.476078	0.997905
970.774639	0.997658
971.073162	0.997983
971.371649	0.996705
971.670098	0.997150
971.968510	0.998343
972.266885	0.995932
972.565223	0.997261
972.863524	0.996863
973.161788	0.997561
973.460014	0.999117
973.758204	0.996378
974.056356	0.996328
974.354471	0.995995
974.652550	0.997222
974.950591	0.995354
975.248595	0.996721
975.546563	0.996468
975.844493	0.998661
976.142386	0.997139
976.440243	0.997236
976.738062	0.997947
977.035845	0.998710
977.333590	0.996595
977.631299	0.999374
977.928971	0.997220
978.226606	0.997098
978.524204	0.997220
978.821765	0.998945
979.119290	0.997360
979.416777	0.996616
979.714228	0.997475
980.011642	0.997120
980.309020	0.997965
980.606360	0.998268
980.903664	0.999211
981.200931	0.996949
981.498162	0.996650
981.795356	0.995098
982.092513	0.994648
982.389633	0.995886
982.686717	0.992070
982.983764	0.991766
983.280775	0.991496
983.577749	0.991186
983.874686	0.992330
984.171587	0.992897
984.468451	0.994867
984.765279	0.996370
985.062070	0.994965
985.358824	0.995692
985.655543	0.995319
985.952224	0.996900
986.248869	0.996109
986.545478	0.997198
986.842050	0.998317
987.138586	0.996003
987.435086	0.998026
987.731549	0.998753
988.027975	0.998819
988.324366	0.999031
988.620719	0.997773
988.917037	0.996354
989.213318	0.998439
989.509563	0.999427
989.805772	0.999113
990.101944	0.999271
990.398080	0.998435
990.694180	0.998590
990.990244	0.998546
991.286271	0.998513
991.582262	0.998578
991.878217	0.999795
992.174136	0.998262
992.470019	0.999968
992.765865	0.998840
993.061676	0.999811
993.357450	0.998592
993.653188	0.997732
993.948890	0.998302
994.244556	0.998806
994.540186	0.997976
994.835780	0.997665
995.131337	0.998591
995.426859	0.997557
995.722345	0.997851
996.017795	0.997901
996.313208	0.997311
996.608586	0.996998
996.903928	0.998519
997.199234	0.996785
997.494504	0.996929
997.789738	0.997076
998.084936	0.996943
998.380099	0.998165
998.675225	0.997513
998.970316	0.998285
999.265371	0.999455
999.560390	0.999297
999.855373	0.998584
1000.150320	0.998679
1000.445232	0.998069
1000.740108	0.999072
1001.034948	0.998933
1001.329752	0.999031
1001.624521	0.999371
1001.919254	0.998617
1002.213951	0.998176
1002.508613	0.997701
1002.803239	0.999990
1003.097829	1.000346
1003.392384	0.999804
1003.686903	0.998418
1003.981386	0.999714
1004.275834	0.999051
1004.570246	0.998656
1004.864623	0.999840
1005.158964	0.999185
1005.453270	0.999221
1005.747540	0.998332
1006.041775	0.999756
1006.335974	1.000685
1006.630138	0.999477
1006.924266	1.000214
1007.218359	1.000640
1007.512416	1.000126
1007.806438	1.000765
1008.100425	0.999903
1008.394376	0.999449
1008.688292	0.998745
1008.982172	1.001194
1009.276017	0.999627
1009.569827	0.998996
1009.863602	0.999520
1010.157341	0.999611
1010.451045	1.000863
1010.744714	0.999899
1011.038347	0.999732
1011.331945	0.999937
1011.625508	0.999684
1011.919036	0.998556
1012.212528	0.999755
1012.505986	0.997514
1012.799408	0.999533
1013.092795	0.999848
1013.386147	1.000417
1013.679464	0.998921
1013.972745	0.998434
1014.265992	0.997396
1014.559204	0.999257
1014.852380	0.999828
1015.145521	1.000278
1015.438628	0.999566
1015.731699	0.999373
1016.024736	0.999696
1016.317737	0.999436
1016.610703	0.999362
1016.903635	0.999997
1017.196531	0.999334
1017.489393	1.001443
1017.782219	1.000247
1018.075011	0.999487
1018.367768	0.999545
1018.660490	1.001250
1018.953177	1.001250
1019.245829	1.001250
