Dividing Wavelength (nm)	Counts (n)	Blue Motor Position (mm): 0.000000	Red Motor Position (mm): 25.200000	
326.493990	1.000517
326.888308	1.000517
327.282561	1.000517
327.676750	0.999100
328.070874	0.998537
328.464933	1.000040
328.858929	0.998875
329.252859	0.999549
329.646726	0.997571
330.040528	0.998857
330.434265	0.998735
330.827938	1.000627
331.221547	0.999915
331.615091	0.999987
332.008571	0.999948
332.401986	0.999612
332.795338	1.000078
333.188625	0.998446
333.581847	0.999769
333.975006	0.998944
334.368100	0.999448
334.761129	0.998840
335.154095	1.000778
335.546996	0.997968
335.939833	0.993434
336.332606	0.994341
336.725315	0.994125
337.117960	0.995919
337.510540	0.994906
337.903056	0.994791
338.295508	0.992931
338.687896	0.994999
339.080220	0.994427
339.472480	0.995342
339.864676	0.993792
340.256807	0.994855
340.648875	0.994772
341.040879	0.994876
341.432818	0.995411
341.824694	0.994908
342.216506	0.995766
342.608253	0.994609
342.999937	0.995114
343.391557	0.994872
343.783113	0.993868
344.174605	0.994083
344.566033	0.995251
344.957397	0.994162
345.348697	0.994163
345.739934	0.994268
346.131106	0.993917
346.522215	0.993181
346.913260	0.994045
347.304241	0.994692
347.695159	0.993256
348.086012	0.993320
348.476802	0.993440
348.867528	0.994180
349.258191	0.992527
349.648789	0.995685
350.039324	0.992895
350.429796	0.995529
350.820203	0.995862
351.210548	0.993471
351.600828	0.994693
351.991045	0.994023
352.381198	0.993549
352.771288	0.994966
353.161314	0.994054
353.551276	0.995456
353.941175	0.993614
354.331010	0.993380
354.720782	0.994336
355.110490	0.994243
355.500135	0.994817
355.889717	0.994724
356.279235	0.994943
356.668689	0.993138
357.058080	0.993509
357.447408	0.994349
357.836672	0.994847
358.225873	0.995031
358.615010	0.993918
359.004084	0.995256
359.393095	0.995260
359.782043	0.994290
360.170927	0.996048
360.559748	0.994069
360.948505	0.994546
361.337199	0.994574
361.725830	0.994946
362.114398	0.993773
362.502903	0.995523
362.891344	0.995243
363.279722	0.994361
363.668037	0.994497
364.056289	0.994153
364.444478	0.994860
364.832603	0.995276
365.220665	0.995189
365.608665	0.994380
365.996601	0.993747
366.384474	0.993782
366.772284	0.993844
367.160031	0.992536
367.547715	0.993477
367.935336	0.994341
368.322893	0.993365
368.710388	0.994593
369.097820	0.993896
369.485189	0.994027
369.872495	0.993331
370.259738	0.992325
370.646918	0.994901
371.034035	0.995312
371.421090	0.993987
371.808081	0.993910
372.195010	0.994911
372.581875	0.994544
372.968678	0.995278
373.355418	0.993749
373.742096	0.993925
374.128710	0.995487
374.515262	0.994792
374.901751	0.994816
375.288177	0.994756
375.674540	0.994943
376.060841	0.994537
376.447079	0.995266
376.833254	0.995482
377.219367	0.994984
377.605417	0.995534
377.991404	0.995465
378.377329	0.994862
378.763191	0.995223
379.148991	0.995850
379.534727	0.995479
379.920402	0.995021
380.306013	0.996186
380.691563	0.995131
381.077049	0.995580
381.462474	0.995300
381.847835	0.996361
382.233134	0.995599
382.618371	0.995374
383.003545	0.995325
383.388657	0.995579
383.773706	0.997309
384.158693	0.996117
384.543618	0.995999
384.928480	0.997164
385.313280	0.997149
385.698017	0.996534
386.082692	0.996300
386.467305	0.996808
386.851856	0.995762
387.236344	0.995492
387.620770	0.995145
388.005133	0.996579
388.389435	0.997379
388.773674	0.996227
389.157851	0.996558
389.541965	0.996540
389.926018	0.995685
390.310008	0.997822
390.693936	0.996266
391.077802	0.997423
391.461606	0.996434
391.845348	0.996468
392.229027	0.997678
392.612645	0.997145
392.996200	0.998261
393.379694	0.997887
393.763125	0.997780
394.146494	0.997385
394.529801	0.997015
394.913047	0.997395
395.296230	0.997050
395.679351	0.997354
396.062410	0.996979
396.445408	0.997016
396.828343	0.997362
397.211217	0.997445
397.594028	0.997214
397.976778	0.996295
398.359466	0.996786
398.742092	0.996540
399.124656	0.996340
399.507158	0.996790
399.889598	0.997643
400.271977	0.997751
400.654294	0.997836
401.036549	0.997533
401.418742	0.997835
401.800874	0.996793
402.182944	0.996434
402.564952	0.997101
402.946898	0.997020
403.328783	0.997570
403.710606	0.997549
404.092367	0.996909
404.474067	0.997025
404.855705	0.997157
405.237282	0.997251
405.618797	0.996675
406.000250	0.996827
406.381642	0.997490
406.762972	0.996881
407.144240	0.997975
407.525447	0.997911
407.906593	0.996451
408.287677	0.997149
408.668700	0.997019
409.049661	0.997005
409.430560	0.997708
409.811399	0.996280
410.192176	0.996499
410.572891	0.996211
410.953545	0.996617
411.334138	0.996397
411.714669	0.997674
412.095139	0.996660
412.475547	0.998178
412.855894	0.997431
413.236180	0.997836
413.616405	0.997439
413.996568	0.998612
414.376670	0.995925
414.756711	0.996952
415.136691	0.996795
415.516609	0.997232
415.896466	0.996742
416.276262	0.995966
416.655997	0.997446
417.035670	0.996836
417.415283	0.997917
417.794834	0.997308
418.174324	0.997002
418.553753	0.997163
418.933121	0.997501
419.312428	0.997392
419.691674	0.997651
420.070859	0.997563
420.449983	0.997520
420.829045	0.996979
421.208047	0.997051
421.586988	0.997695
421.965867	0.996743
422.344686	0.997727
422.723444	0.997374
423.102141	0.997088
423.480777	0.997788
423.859352	0.996970
424.237866	0.996418
424.616319	0.997423
424.994712	0.997449
425.373044	0.998419
425.751314	0.997656
426.129524	0.996791
426.507673	0.997429
426.885762	0.997846
427.263789	0.997156
427.641756	0.997341
428.019662	0.997963
428.397508	0.996412
428.775292	0.996089
429.153016	0.996762
429.530679	0.996859
429.908282	0.997406
430.285824	0.995968
430.663305	0.996198
431.040726	0.995939
431.418086	0.997524
431.795385	0.995968
432.172624	0.995716
432.549802	0.995806
432.926920	0.996035
433.303977	0.994598
433.680974	0.994609
434.057910	0.993723
434.434786	0.993760
434.811601	0.992984
435.188355	0.991730
435.565050	0.991992
435.941683	0.990959
436.318257	0.991396
436.694770	0.989152
437.071222	0.989728
437.447614	0.988728
437.823946	0.986473
438.200218	0.985345
438.576429	0.984145
438.952580	0.981884
439.328670	0.980248
439.704700	0.978796
440.080670	0.978192
440.456580	0.974468
440.832429	0.972484
441.208218	0.971384
441.583947	0.968586
441.959616	0.966712
442.335224	0.964484
442.710773	0.961746
443.086261	0.958606
443.461689	0.955677
443.837057	0.951936
444.212365	0.948649
444.587612	0.946196
444.962800	0.941574
445.337927	0.938581
445.712995	0.937209
446.088002	0.929569
446.462949	0.926215
446.837837	0.922503
447.212664	0.918049
447.587431	0.910561
447.962139	0.900424
448.336786	0.887845
448.711374	0.886482
449.085901	0.888223
449.460369	0.884220
449.834776	0.878009
450.209124	0.868130
450.583412	0.858274
450.957640	0.853007
451.331808	0.848368
451.705917	0.847326
452.079965	0.841495
452.453954	0.831828
452.827883	0.827100
453.201752	0.819466
453.575562	0.815826
453.949311	0.803729
454.323001	0.798914
454.696632	0.790798
455.070202	0.779613
455.443713	0.770053
455.817164	0.760747
456.190556	0.750408
456.563888	0.741299
456.937160	0.732680
457.310373	0.731868
457.683526	0.722853
458.056619	0.716448
458.429653	0.709389
458.802628	0.702658
459.175542	0.691967
459.548398	0.675537
459.921194	0.664184
460.293930	0.656778
460.666607	0.634045
461.039224	0.620028
461.411782	0.610089
461.784280	0.601518
462.156719	0.595441
462.529099	0.588795
462.901419	0.589222
463.273680	0.583384
463.645882	0.575951
464.018024	0.569794
464.390106	0.558068
464.762130	0.541183
465.134094	0.522871
465.505999	0.497282
465.877845	0.470850
466.249631	0.454303
466.621358	0.450248
466.993026	0.449261
467.364634	0.444915
467.736184	0.443252
468.107674	0.442904
468.479105	0.434407
468.850477	0.434258
469.221790	0.431503
469.593043	0.432883
469.964238	0.429963
470.335373	0.422954
470.706449	0.415984
471.077467	0.411329
471.448425	0.375026
471.819324	0.349706
472.190164	0.344091
472.560945	0.363089
472.931667	0.376191
473.302330	0.375098
473.672934	0.381195
474.043479	0.366452
474.413965	0.364377
474.784393	0.363020
475.154761	0.354233
475.525070	0.347743
475.895321	0.350058
476.265513	0.341024
476.635645	0.333757
477.005719	0.330358
477.375734	0.324083
477.745691	0.315015
478.115588	0.308946
478.485427	0.299897
478.855207	0.285696
479.224928	0.267012
479.594591	0.253534
479.964194	0.254114
480.333739	0.252480
480.703226	0.251749
481.072653	0.248247
481.442022	0.242805
481.811333	0.237626
482.180584	0.239496
482.549777	0.242915
482.918912	0.244843
483.287988	0.243329
483.657005	0.241615
484.025964	0.246920
484.394864	0.243198
484.763706	0.242725
485.132489	0.246783
485.501213	0.246914
485.869879	0.244486
486.238487	0.247123
486.607036	0.244319
486.975527	0.248117
487.343959	0.243812
487.712333	0.241999
488.080648	0.243312
488.448905	0.242036
488.817104	0.242886
489.185244	0.237171
489.553326	0.233541
489.921350	0.223541
490.289315	0.205854
490.657222	0.200392
491.025070	0.201693
491.392861	0.203310
491.760593	0.208691
492.128267	0.214072
492.495883	0.219360
492.863440	0.225522
493.230939	0.231713
493.598380	0.232668
493.965763	0.234680
494.333088	0.237298
494.700354	0.238532
495.067563	0.237274
495.434713	0.240526
495.801805	0.238165
496.168839	0.239767
496.535815	0.240487
496.902733	0.240650
497.269593	0.242138
497.636395	0.239758
498.003139	0.240039
498.369825	0.242676
498.736453	0.239236
499.103023	0.240552
499.469535	0.240067
499.835989	0.240248
500.202385	0.241213
500.568723	0.244299
500.935003	0.239551
501.301226	0.243528
501.667390	0.237990
502.033497	0.236081
502.399546	0.239085
502.765537	0.240581
503.131470	0.239254
503.497345	0.235483
503.863163	0.244243
504.228923	0.236815
504.594625	0.235592
504.960269	0.240921
505.325856	0.236192
505.691385	0.240394
506.056856	0.237282
506.422270	0.236573
506.787625	0.238874
507.152924	0.236616
507.518164	0.236586
507.883347	0.238464
508.248472	0.240210
508.613540	0.235029
508.978550	0.237685
509.343503	0.238322
509.708398	0.235906
510.073236	0.233550
510.438016	0.233435
510.802738	0.234326
511.167403	0.233359
511.532010	0.235370
511.896561	0.230503
512.261053	0.229472
512.625488	0.231406
512.989866	0.231690
513.354186	0.232160
513.718449	0.234014
514.082655	0.230400
514.446803	0.232584
514.810894	0.230016
515.174927	0.232777
515.538904	0.232153
515.902822	0.229099
516.266684	0.231540
516.630488	0.232830
516.994235	0.231320
517.357925	0.230393
517.721558	0.228547
518.085133	0.228060
518.448651	0.228250
518.812112	0.230336
519.175516	0.229823
519.538863	0.227807
519.902152	0.229337
520.265385	0.226322
520.628560	0.227905
520.991678	0.228413
521.354739	0.227057
521.717743	0.228277
522.080690	0.228850
522.443580	0.226147
522.806413	0.227137
523.169189	0.226363
523.531908	0.225367
523.894569	0.229065
524.257174	0.228693
524.619722	0.226600
524.982213	0.227680
525.344647	0.226625
525.707025	0.227143
526.069345	0.225813
526.431608	0.227328
526.793815	0.225124
527.155964	0.229389
527.518057	0.228380
527.880093	0.229265
528.242072	0.227839
528.603995	0.230001
528.965860	0.231471
529.327669	0.230178
529.689421	0.231294
530.051117	0.231940
530.412755	0.229680
530.774337	0.231977
531.135862	0.232407
531.497331	0.231652
531.858743	0.234662
532.220098	0.231479
532.581396	0.233754
532.942638	0.234336
533.303824	0.235108
533.664953	0.235075
534.026025	0.236795
534.387040	0.234723
534.747999	0.234602
535.108902	0.233473
535.469748	0.238409
535.830537	0.236346
536.191270	0.236683
536.551947	0.236496
536.912567	0.236342
537.273131	0.237982
537.633638	0.238148
537.994089	0.238616
538.354483	0.239696
538.714821	0.236769
539.075103	0.236326
539.435328	0.237451
539.795497	0.241069
540.155609	0.237714
540.515665	0.235708
540.875665	0.241244
541.235609	0.239996
541.595496	0.239959
541.955328	0.236241
542.315102	0.239144
542.674821	0.240050
543.034483	0.240012
543.394090	0.239773
543.753640	0.241515
544.113134	0.236855
544.472571	0.239980
544.831953	0.237081
545.191278	0.241179
545.550548	0.240612
545.909761	0.237441
546.268918	0.238210
546.628019	0.236347
546.987064	0.238979
547.346053	0.240878
547.704986	0.238910
548.063863	0.239098
548.422684	0.239360
548.781449	0.241226
549.140158	0.238710
549.498811	0.241741
549.857408	0.244780
550.215949	0.239698
550.574434	0.242610
550.932864	0.240582
551.291237	0.239385
551.649555	0.240562
552.007817	0.240449
552.366022	0.241083
552.724173	0.241197
553.082267	0.241803
553.440305	0.238369
553.798288	0.243316
554.156215	0.239670
554.514086	0.240404
554.871902	0.243391
555.229661	0.242917
555.587365	0.242950
555.945014	0.245668
556.302606	0.242563
556.660143	0.245244
557.017625	0.241667
557.375050	0.243984
557.732421	0.241005
558.089735	0.243004
558.446994	0.243144
558.804197	0.242381
559.161345	0.242342
559.518437	0.245545
559.875474	0.243509
560.232455	0.242924
560.589381	0.243963
560.946251	0.244241
561.303065	0.241874
561.659825	0.243306
562.016528	0.244769
562.373177	0.247270
562.729770	0.244724
563.086307	0.246812
563.442789	0.244621
563.799216	0.247456
564.155587	0.245978
564.511904	0.247210
564.868164	0.247772
565.224370	0.247279
565.580520	0.249022
565.936615	0.248990
566.292654	0.252010
566.648638	0.249037
567.004567	0.249669
567.360441	0.250241
567.716260	0.252706
568.072023	0.250517
568.427732	0.251030
568.783385	0.253063
569.138982	0.251445
569.494525	0.251095
569.850013	0.254169
570.205445	0.252427
570.560823	0.254946
570.916145	0.256768
571.271412	0.255099
571.626625	0.256621
571.981782	0.257206
572.336884	0.257955
572.691931	0.257791
573.046923	0.258794
573.401860	0.260270
573.756743	0.261435
574.111570	0.260533
574.466342	0.261108
574.821059	0.260413
575.175722	0.263272
575.530330	0.263142
575.884882	0.263218
576.239380	0.265258
576.593823	0.265760
576.948211	0.265115
577.302544	0.268651
577.656823	0.267965
578.011047	0.268233
578.365216	0.268992
578.719330	0.270861
579.073389	0.270562
579.427394	0.272036
579.781344	0.272608
580.135239	0.274211
580.489080	0.273676
580.842866	0.276831
581.196597	0.277013
581.550273	0.275244
581.903895	0.276385
582.257463	0.274434
582.610975	0.278054
582.964434	0.277196
583.317837	0.279679
583.671186	0.280144
584.024481	0.280193
584.377721	0.282602
584.730906	0.283231
585.084037	0.282408
585.437113	0.284233
585.790135	0.283964
586.143103	0.286574
586.496016	0.288028
586.848874	0.285367
587.201679	0.286001
587.554428	0.289316
587.907124	0.287857
588.259765	0.288842
588.612352	0.289233
588.964884	0.292915
589.317362	0.292711
589.669786	0.292771
590.022155	0.291037
590.374470	0.290452
590.726731	0.292528
591.078937	0.297008
591.431090	0.293720
591.783188	0.297674
592.135232	0.298379
592.487222	0.298185
592.839157	0.296489
593.191038	0.298280
593.542866	0.300281
593.894639	0.304066
594.246358	0.302225
594.598022	0.301484
594.949633	0.305061
595.301190	0.306111
595.652692	0.304842
596.004141	0.301014
596.355535	0.309513
596.706876	0.309559
597.058162	0.311991
597.409395	0.309400
597.760573	0.307047
598.111698	0.310323
598.462768	0.310862
598.813785	0.312252
599.164748	0.313391
599.515657	0.313491
599.866511	0.317098
600.217312	0.312074
600.568060	0.317858
600.918753	0.314213
601.269392	0.314811
601.619978	0.318292
601.970510	0.315834
602.320988	0.316007
602.671412	0.313838
603.021783	0.316077
603.372100	0.317510
603.722363	0.317326
604.072572	0.318064
604.422728	0.318082
604.772830	0.319951
605.122878	0.319476
605.472872	0.320202
605.822813	0.318842
606.172701	0.321457
606.522534	0.318413
606.872314	0.318292
607.222041	0.319599
607.571714	0.317890
607.921333	0.318915
608.270899	0.318940
608.620411	0.315392
608.969870	0.319413
609.319276	0.319296
609.668627	0.319161
610.017926	0.318011
610.367171	0.316572
610.716362	0.317485
611.065500	0.317568
611.414585	0.316485
611.763616	0.316949
612.112594	0.317187
612.461518	0.316620
612.810389	0.314334
613.159207	0.316503
613.507971	0.318375
613.856682	0.314252
614.205340	0.315828
614.553945	0.312257
614.902496	0.316347
615.250994	0.314187
615.599439	0.315288
615.947830	0.314469
616.296169	0.315570
616.644454	0.315082
616.992686	0.314970
617.340864	0.312883
617.688990	0.316885
618.037063	0.313264
618.385082	0.315068
618.733048	0.312074
619.080961	0.314348
619.428821	0.313249
619.776628	0.313384
620.124382	0.315363
620.472083	0.315335
620.819731	0.314991
621.167326	0.318763
621.514868	0.318488
621.862357	0.322812
622.209793	0.322377
622.557176	0.324652
622.904506	0.325781
623.251783	0.328034
623.599007	0.330093
623.946179	0.330060
624.293297	0.331815
624.640363	0.335605
624.987376	0.336032
625.334336	0.338853
625.681243	0.340797
626.028097	0.341842
626.374899	0.342714
626.721647	0.342622
627.068343	0.345868
627.414987	0.346922
627.761577	0.349455
628.108115	0.347620
628.454600	0.352779
628.801032	0.349772
629.147412	0.352035
629.493739	0.352446
629.840014	0.355407
630.186236	0.352980
630.532405	0.358331
630.878521	0.355898
631.224585	0.358224
631.570597	0.362246
631.916556	0.359968
632.262462	0.360374
632.608316	0.362191
632.954117	0.363302
633.299866	0.363968
633.645562	0.364221
633.991206	0.368703
634.336797	0.371628
634.682336	0.374139
635.027823	0.375612
635.373257	0.376326
635.718639	0.379100
636.063968	0.378405
636.409245	0.384579
636.754470	0.385153
637.099642	0.387378
637.444762	0.390838
637.789829	0.389858
638.134845	0.393634
638.479808	0.394544
638.824719	0.394263
639.169577	0.398381
639.514383	0.397039
639.859137	0.400906
640.203839	0.401156
640.548489	0.401404
640.893086	0.402894
641.237632	0.404515
641.582125	0.402709
641.926566	0.404618
642.270955	0.404521
642.615292	0.405218
642.959576	0.403894
643.303809	0.404994
643.647990	0.404050
643.992118	0.404941
644.336195	0.408559
644.680219	0.406379
645.024192	0.406974
645.368112	0.401313
645.711981	0.400213
646.055797	0.395160
646.399562	0.397957
646.743274	0.390033
647.086935	0.387661
647.430544	0.387124
647.774101	0.386296
648.117606	0.385952
648.461059	0.386176
648.804460	0.388928
649.147810	0.393917
649.491108	0.395780
649.834354	0.397471
650.177548	0.402525
650.520690	0.407847
650.863781	0.409282
651.206820	0.408283
651.549807	0.413202
651.892742	0.417146
652.235626	0.416803
652.578458	0.417580
652.921238	0.423095
653.263967	0.421640
653.606644	0.425481
653.949269	0.425351
654.291843	0.429113
654.634365	0.425653
654.976836	0.428986
655.319255	0.429052
655.661622	0.430942
656.003938	0.430788
656.346203	0.433788
656.688416	0.432072
657.030577	0.435199
657.372687	0.436803
657.714746	0.437608
658.056753	0.435154
658.398708	0.438172
658.740612	0.439571
659.082465	0.435232
659.424266	0.436580
659.766016	0.436287
660.107715	0.438290
660.449362	0.437444
660.790958	0.437916
661.132503	0.438669
661.473996	0.436039
661.815438	0.437256
662.156829	0.437512
662.498168	0.437393
662.839456	0.439175
663.180693	0.437355
663.521879	0.436790
663.863013	0.437983
664.204097	0.436680
664.545129	0.433478
664.886110	0.433656
665.227040	0.430929
665.567918	0.433615
665.908746	0.431933
666.249522	0.431228
666.590248	0.432447
666.930922	0.430766
667.271545	0.429396
667.612118	0.429281
667.952639	0.431465
668.293109	0.429878
668.633528	0.432667
668.973896	0.432406
669.314213	0.432837
669.654480	0.434645
669.994695	0.434859
670.334859	0.435526
670.674973	0.435627
671.015035	0.436107
671.355047	0.435971
671.695008	0.437437
672.034918	0.438889
672.374777	0.438163
672.714585	0.438874
673.054342	0.439660
673.394049	0.439314
673.733705	0.437064
674.073310	0.438164
674.412864	0.440910
674.752368	0.441727
675.091820	0.441591
675.431223	0.446643
675.770574	0.446049
676.109875	0.449163
676.449125	0.449629
676.788324	0.451114
677.127473	0.456868
677.466571	0.456257
677.805619	0.458278
678.144616	0.459791
678.483562	0.461167
678.822458	0.463586
679.161303	0.464754
679.500098	0.464725
679.838842	0.466885
680.177535	0.466604
680.516179	0.464876
680.854771	0.463852
681.193314	0.456943
681.531805	0.448332
681.870247	0.437254
682.208638	0.429843
682.546978	0.428882
682.885268	0.430457
683.223508	0.436948
683.561697	0.440793
683.899836	0.442825
684.237925	0.446552
684.575963	0.448811
684.913951	0.452007
685.251889	0.447853
685.589776	0.449645
685.927614	0.451999
686.265401	0.446840
686.603137	0.447744
686.940824	0.441517
687.278460	0.440686
687.616046	0.439121
687.953582	0.434362
688.291068	0.435925
688.628504	0.431558
688.965889	0.433519
689.303224	0.438374
689.640510	0.441249
689.977745	0.447442
690.314930	0.455194
690.652065	0.459881
690.989150	0.467724
691.326185	0.473774
691.663170	0.478775
692.000105	0.485517
692.336990	0.492594
692.673825	0.495504
693.010610	0.501947
693.347345	0.506873
693.684030	0.508357
694.020665	0.513307
694.357251	0.522570
694.693786	0.522229
695.030272	0.526691
695.366707	0.529225
695.703093	0.532872
696.039429	0.531299
696.375716	0.532002
696.711952	0.535134
697.048139	0.537577
697.384276	0.539264
697.720363	0.537178
698.056400	0.536568
698.392388	0.542326
698.728326	0.545288
699.064214	0.548170
699.400053	0.547938
699.735842	0.551536
700.071581	0.554987
700.407270	0.558093
700.742910	0.560524
701.078501	0.566659
701.414042	0.566866
701.749533	0.570338
702.084974	0.578966
702.420366	0.571212
702.755709	0.578431
703.091002	0.586895
703.426246	0.580100
703.761440	0.585620
704.096584	0.591080
704.431679	0.587706
704.766725	0.589824
705.101721	0.590868
705.436668	0.587553
705.771565	0.594683
706.106413	0.591158
706.441212	0.586977
706.775961	0.584985
707.110661	0.587933
707.445311	0.584816
707.779913	0.581811
708.114465	0.580026
708.448967	0.577045
708.783421	0.569190
709.117825	0.563734
709.452180	0.564215
709.786485	0.557262
710.120742	0.546992
710.454949	0.549715
710.789107	0.541295
711.123216	0.533026
711.457275	0.534435
711.791286	0.525654
712.125247	0.523237
712.459159	0.534716
712.793023	0.527654
713.126837	0.531815
713.460602	0.531765
713.794318	0.541372
714.127985	0.540057
714.461602	0.550465
714.795171	0.553548
715.128691	0.560893
715.462162	0.568588
715.795584	0.573705
716.128957	0.577175
716.462281	0.584181
716.795556	0.586842
717.128782	0.592186
717.461960	0.601879
717.795088	0.600069
718.128167	0.605782
718.461198	0.614963
718.794180	0.615746
719.127113	0.618530
719.459997	0.622283
719.792833	0.628336
720.125619	0.629100
720.458357	0.635703
720.791046	0.635084
721.123686	0.637940
721.456278	0.645063
721.788821	0.642921
722.121315	0.645707
722.453761	0.650819
722.786158	0.648514
723.118506	0.644632
723.450805	0.653120
723.783056	0.649276
724.115259	0.646793
724.447412	0.645773
724.779518	0.646982
725.111574	0.645343
725.443582	0.641835
725.775542	0.643952
726.107453	0.636086
726.439315	0.636713
726.771129	0.634342
727.102895	0.628268
727.434612	0.620677
727.766281	0.619265
728.097901	0.617864
728.429473	0.617466
728.760996	0.616061
729.092471	0.616202
729.423897	0.620026
729.755276	0.619209
730.086606	0.619117
730.417887	0.613247
730.749120	0.604446
731.080305	0.595200
731.411442	0.591679
731.742530	0.596511
732.073570	0.595441
732.404562	0.588009
732.735506	0.588877
733.066401	0.594041
733.397249	0.602830
733.728048	0.614250
734.058798	0.627022
734.389501	0.636653
734.720156	0.646769
735.050762	0.656118
735.381320	0.656299
735.711831	0.665512
736.042293	0.670298
736.372707	0.666046
736.703073	0.670353
737.033391	0.672932
737.363661	0.670829
737.693883	0.665276
738.024056	0.664558
738.354182	0.664399
738.684260	0.653615
739.014290	0.649900
739.344272	0.650989
739.674207	0.644329
740.004093	0.642939
740.333931	0.643751
740.663722	0.644009
740.993464	0.645303
741.323159	0.647677
741.652806	0.653483
741.982405	0.658609
742.311956	0.662121
742.641460	0.664897
742.970915	0.667651
743.300323	0.676404
743.629683	0.682742
743.958996	0.684251
744.288260	0.688534
744.617477	0.694502
744.946647	0.696556
745.275768	0.700841
745.604842	0.700912
745.933869	0.711233
746.262847	0.712420
746.591778	0.705447
746.920662	0.711712
747.249498	0.717742
747.578286	0.709175
747.907027	0.704560
748.235720	0.706501
748.564365	0.701202
748.892963	0.700969
749.221514	0.703885
749.550017	0.708830
749.878473	0.708860
750.206881	0.714999
750.535242	0.716600
750.863555	0.715919
751.191821	0.717149
751.520039	0.720259
751.848210	0.725239
752.176334	0.718412
752.504411	0.716859
752.832440	0.723937
753.160421	0.728999
753.488356	0.727203
753.816243	0.725051
754.144082	0.732587
754.471875	0.736167
754.799620	0.732506
755.127318	0.732689
755.454969	0.733194
755.782572	0.732420
756.110129	0.737754
756.437638	0.740050
756.765100	0.735873
757.092515	0.734036
757.419882	0.733536
757.747203	0.738218
758.074477	0.737719
758.401703	0.734540
758.728882	0.731285
759.056014	0.729232
759.383099	0.728597
759.710138	0.729880
760.037129	0.726224
760.364073	0.720414
760.690970	0.722357
761.017820	0.727403
761.344623	0.723262
761.671379	0.713957
761.998088	0.702381
762.324751	0.681212
762.651366	0.638917
762.977935	0.572998
763.304456	0.519980
763.630931	0.511203
763.957359	0.549780
764.283740	0.594151
764.610074	0.621079
764.936362	0.651860
765.262602	0.678325
765.588796	0.700164
765.914943	0.718318
766.241044	0.735883
766.567097	0.741447
766.893104	0.751226
767.219064	0.758113
767.544978	0.764318
767.870845	0.777660
768.196665	0.781474
768.522438	0.780042
768.848165	0.781191
769.173846	0.790811
769.499479	0.794414
769.825066	0.798348
770.150607	0.803828
770.476101	0.799093
770.801548	0.798568
771.126949	0.810722
771.452303	0.814778
771.777611	0.813923
772.102872	0.812958
772.428087	0.818262
772.753256	0.821703
773.078378	0.823424
773.403453	0.832431
773.728482	0.836313
774.053465	0.829682
774.378401	0.833743
774.703291	0.842234
775.028135	0.841363
775.352932	0.844173
775.677683	0.846238
776.002388	0.846699
776.327046	0.845584
776.651658	0.848630
776.976224	0.852956
777.300743	0.853475
777.625216	0.855328
777.949643	0.856432
778.274024	0.856847
778.598359	0.858351
778.922647	0.856512
779.246889	0.857940
779.571086	0.861393
779.895236	0.863953
780.219339	0.861064
780.543397	0.858516
780.867409	0.856368
781.191374	0.859161
781.515294	0.860951
781.839167	0.858881
782.162995	0.862531
782.486776	0.860051
782.810511	0.861123
783.134201	0.863867
783.457844	0.861490
783.781441	0.864794
784.104993	0.870672
784.428498	0.871106
784.751958	0.866832
785.075372	0.868938
785.398739	0.872366
785.722061	0.868895
786.045337	0.863721
786.368568	0.869526
786.691752	0.872403
787.014891	0.857113
787.337983	0.848362
787.661030	0.841707
787.984031	0.823789
788.306987	0.810832
788.629897	0.813731
788.952760	0.817192
789.275579	0.821761
789.598351	0.835642
789.921078	0.850172
790.243759	0.852065
790.566395	0.856864
790.888984	0.863417
791.211529	0.868980
791.534027	0.872881
791.856480	0.873293
792.178888	0.879490
792.501249	0.881614
792.823566	0.882716
793.145836	0.883044
793.468062	0.884241
793.790241	0.885032
794.112375	0.883225
794.434464	0.877396
794.756507	0.878226
795.078505	0.877924
795.400457	0.872723
795.722364	0.860906
796.044226	0.853432
796.366042	0.852420
796.687812	0.854946
797.009538	0.851220
797.331218	0.854074
797.652852	0.860509
797.974442	0.864402
798.295986	0.864125
798.617484	0.866500
798.938938	0.871431
799.260346	0.876100
799.581709	0.877437
799.903026	0.881179
800.224299	0.880600
800.545526	0.885203
800.866708	0.888526
801.187845	0.892208
801.508936	0.892784
801.829983	0.889711
802.150984	0.892517
802.471940	0.898313
802.792851	0.897331
803.113717	0.897458
803.434538	0.895749
803.755314	0.898511
804.076045	0.900191
804.396731	0.900779
804.717372	0.900053
805.037967	0.902062
805.358518	0.899525
805.679024	0.896585
805.999485	0.896256
806.319901	0.895893
806.640272	0.898440
806.960598	0.896644
807.280879	0.894253
807.601115	0.891870
807.921306	0.895555
808.241453	0.896898
808.561554	0.893905
808.881611	0.894299
809.201623	0.896153
809.521590	0.896593
809.841513	0.896640
810.161390	0.897110
810.481223	0.897516
810.801011	0.901209
811.120755	0.903120
811.440453	0.901924
811.760107	0.901048
812.079716	0.900370
812.399281	0.904211
812.718801	0.907052
813.038276	0.907772
813.357707	0.907658
813.677093	0.903308
813.996434	0.907171
814.315731	0.908167
814.634983	0.909444
814.954191	0.908317
815.273354	0.905740
815.592473	0.902484
815.911547	0.901841
816.230577	0.898552
816.549562	0.895108
816.868502	0.897143
817.187399	0.892656
817.506250	0.888011
817.825058	0.890563
818.143821	0.885848
818.462539	0.882118
818.781213	0.874092
819.099843	0.861941
819.418429	0.845819
819.736970	0.830308
820.055466	0.811187
820.373919	0.784857
820.692327	0.751738
821.010691	0.717836
821.329011	0.641297
821.647286	0.526668
821.965517	0.413582
822.283704	0.371162
822.601847	0.372586
822.919945	0.408319
823.237999	0.441372
823.556010	0.487638
823.873976	0.543594
824.191897	0.593389
824.509775	0.635394
824.827609	0.680807
825.145398	0.703470
825.463144	0.706750
825.780845	0.688984
826.098502	0.670684
826.416116	0.624615
826.733685	0.581486
827.051210	0.572627
827.368692	0.587727
827.686129	0.624330
828.003522	0.677396
828.320872	0.724316
828.638177	0.768404
828.955439	0.800924
829.272656	0.821882
829.589830	0.840011
829.906960	0.854902
830.224046	0.867324
830.541088	0.876983
830.858086	0.881772
831.175041	0.888359
831.491952	0.887386
831.808819	0.884605
832.125642	0.877489
832.442421	0.862552
832.759157	0.841207
833.075849	0.795504
833.392497	0.731795
833.709101	0.690804
834.025662	0.701200
834.342179	0.732688
834.658653	0.770936
834.975083	0.806204
835.291469	0.831918
835.607811	0.855292
835.924110	0.871405
836.240366	0.888750
836.556578	0.901741
836.872746	0.909143
837.188871	0.914844
837.504952	0.920957
837.820990	0.923709
838.136984	0.926863
838.452935	0.930428
838.768842	0.930804
839.084706	0.925162
839.400526	0.898495
839.716303	0.859961
840.032037	0.836464
840.347727	0.840841
840.663373	0.858764
840.978977	0.880701
841.294537	0.901669
841.610054	0.918137
841.925527	0.925892
842.240957	0.933046
842.556344	0.940680
842.871687	0.946194
843.186987	0.949445
843.502244	0.950313
843.817458	0.952281
844.132629	0.955989
844.447756	0.960959
844.762840	0.959937
845.077881	0.959760
845.392879	0.960072
845.707833	0.962621
846.022745	0.964700
846.337613	0.964858
846.652438	0.966449
846.967221	0.964992
847.281960	0.964853
847.596656	0.967585
847.911309	0.966142
848.225919	0.968098
848.540485	0.968036
848.855009	0.969122
849.169490	0.968197
849.483928	0.968630
849.798323	0.969313
850.112675	0.969862
850.426984	0.970797
850.741251	0.970170
851.055474	0.970514
851.369654	0.968253
851.683792	0.968796
851.997887	0.969413
852.311938	0.970025
852.625947	0.970460
852.939914	0.967566
853.253837	0.969363
853.567718	0.971179
853.881555	0.969687
854.195350	0.967877
854.509103	0.969810
854.822812	0.969420
855.136479	0.970448
855.450103	0.968515
855.763685	0.968026
856.077224	0.969174
856.390720	0.970291
856.704173	0.970666
857.017584	0.968915
857.330953	0.966619
857.644278	0.967952
857.957561	0.968606
858.270802	0.968214
858.584000	0.968148
858.897155	0.966758
859.210268	0.967801
859.523339	0.967200
859.836367	0.969934
860.149352	0.970971
860.462295	0.967868
860.775195	0.970600
861.088054	0.969521
861.400869	0.969608
861.713642	0.970292
862.026373	0.970077
862.339062	0.971462
862.651708	0.967877
862.964312	0.967403
863.276873	0.969276
863.589392	0.968118
863.901869	0.966903
864.214303	0.965543
864.526696	0.964781
864.839045	0.964964
865.151353	0.961704
865.463619	0.962674
865.775842	0.962215
866.088023	0.962088
866.400162	0.962253
866.712258	0.962478
867.024313	0.963037
867.336325	0.962383
867.648296	0.963202
867.960224	0.962091
868.272110	0.962602
868.583954	0.964355
868.895755	0.964461
869.207515	0.960653
869.519233	0.959732
869.830909	0.960123
870.142542	0.962701
870.454134	0.961345
870.765684	0.960784
871.077191	0.957957
871.388657	0.959463
871.700081	0.958310
872.011463	0.957766
872.322803	0.958472
872.634101	0.957247
872.945357	0.953698
873.256571	0.953405
873.567744	0.952764
873.878874	0.955341
874.189963	0.952367
874.501010	0.950782
874.812015	0.949223
875.122979	0.952082
875.433900	0.953837
875.744780	0.954338
876.055618	0.951500
876.366415	0.950204
876.677169	0.949316
876.987882	0.951665
877.298554	0.951616
877.609183	0.948221
877.919771	0.944915
878.230317	0.942657
878.540822	0.941628
878.851285	0.935846
879.161707	0.927608
879.472087	0.915560
879.782425	0.900417
880.092722	0.865532
880.402977	0.815343
880.713191	0.754306
881.023363	0.697079
881.333494	0.663141
881.643583	0.634833
881.953631	0.635157
882.263637	0.664351
882.573602	0.702733
882.883526	0.728183
883.193408	0.751256
883.503248	0.772762
883.813048	0.799893
884.122806	0.830176
884.432522	0.852774
884.742197	0.872222
885.051831	0.881975
885.361424	0.892335
885.670975	0.904160
885.980485	0.914443
886.289954	0.920978
886.599382	0.925744
886.908768	0.929651
887.218113	0.934584
887.527417	0.940194
887.836680	0.941626
888.145901	0.944103
888.455082	0.947006
888.764221	0.950359
889.073319	0.953867
889.382376	0.953417
889.691392	0.952909
890.000366	0.953645
890.309300	0.955318
890.618193	0.954108
890.927044	0.950946
891.235855	0.951732
891.544625	0.951647
891.853353	0.951594
892.162041	0.949939
892.470687	0.943319
892.779293	0.939376
893.087858	0.934467
893.396381	0.927157
893.704864	0.914176
894.013306	0.889971
894.321707	0.863892
894.630068	0.850893
894.938387	0.844641
895.246665	0.847250
895.554903	0.859106
895.863100	0.871773
896.171256	0.888778
896.479371	0.907577
896.787446	0.920279
897.095480	0.925120
897.403473	0.929721
897.711425	0.933774
898.019336	0.940348
898.327207	0.944585
898.635038	0.945933
898.942827	0.945134
899.250576	0.948570
899.558284	0.951378
899.865952	0.954311
900.173579	0.954873
900.481165	0.955836
900.788711	0.960524
901.096216	0.961684
901.403681	0.961584
901.711105	0.963231
902.018489	0.963703
902.325832	0.963421
902.633135	0.961248
902.940397	0.955486
903.247619	0.944981
903.554800	0.918978
903.861941	0.879695
904.169041	0.846307
904.476101	0.828611
904.783121	0.828963
905.090100	0.845267
905.397039	0.867416
905.703938	0.887738
906.010796	0.907028
906.317614	0.923711
906.624391	0.936099
906.931129	0.945387
907.237826	0.952568
907.544483	0.960288
907.851099	0.963061
908.157675	0.967712
908.464211	0.970230
908.770707	0.973136
909.077163	0.973917
909.383578	0.974991
909.689954	0.976268
909.996289	0.975470
910.302584	0.979200
910.608839	0.979749
910.915054	0.979091
911.221229	0.977295
911.527363	0.977087
911.833458	0.975702
912.139513	0.977002
912.445527	0.974811
912.751502	0.974531
913.057436	0.972509
913.363331	0.969717
913.669186	0.966328
913.975000	0.961311
914.280775	0.956019
914.586510	0.949432
914.892205	0.935722
915.197859	0.915290
915.503475	0.888990
915.809050	0.869706
916.114585	0.864058
916.420081	0.861883
916.725536	0.858242
917.030952	0.866737
917.336328	0.879176
917.641665	0.893593
917.946961	0.908659
918.252218	0.920060
918.557435	0.927780
918.862612	0.937546
919.167750	0.943415
919.472848	0.947881
919.777906	0.953343
920.082925	0.959507
920.387904	0.961024
920.692843	0.963909
920.997743	0.963969
921.302603	0.968345
921.607423	0.970442
921.912204	0.971506
922.216946	0.972744
922.521647	0.973405
922.826310	0.975692
923.130932	0.977648
923.435516	0.978977
923.740059	0.980684
924.044564	0.978222
924.349028	0.980598
924.653454	0.982260
924.957840	0.985471
925.262186	0.982890
925.566493	0.984004
925.870761	0.985008
926.174989	0.986038
926.479178	0.987818
926.783328	0.988455
927.087438	0.988238
927.391509	0.987087
927.695541	0.990315
927.999533	0.990194
928.303486	0.989899
928.607400	0.990604
928.911275	0.989593
929.215110	0.989684
929.518906	0.991108
929.822663	0.990189
930.126381	0.990756
930.430060	0.989813
930.733699	0.990046
931.037299	0.989868
931.340861	0.991391
931.644383	0.988741
931.947866	0.988656
932.251309	0.990859
932.554714	0.990899
932.858080	0.989805
933.161407	0.989627
933.464694	0.989423
933.767943	0.990003
934.071153	0.991032
934.374323	0.990913
934.677455	0.990283
934.980548	0.991812
935.283602	0.990057
935.586617	0.992179
935.889593	0.989907
936.192530	0.991499
936.495428	0.989968
936.798287	0.990866
937.101108	0.990084
937.403890	0.987927
937.706632	0.988339
938.009336	0.986167
938.312002	0.985681
938.614628	0.984507
938.917216	0.982815
939.219765	0.980967
939.522275	0.983515
939.824747	0.983159
940.127179	0.983888
940.429573	0.984225
940.731929	0.984117
941.034246	0.984649
941.336524	0.985082
941.638763	0.986199
941.940964	0.985714
942.243126	0.986368
942.545250	0.988312
942.847335	0.988331
943.149381	0.988193
943.451389	0.987071
943.753359	0.988759
944.055290	0.990483
944.357182	0.990021
944.659036	0.988792
944.960851	0.989490
945.262628	0.988983
945.564367	0.990138
945.866067	0.989527
946.167729	0.989361
946.469352	0.989887
946.770937	0.988939
947.072484	0.990847
947.373992	0.989989
947.675462	0.989591
947.976893	0.990570
948.278286	0.989575
948.579641	0.991764
948.880958	0.990120
949.182236	0.990793
949.483476	0.990684
949.784678	0.990233
950.085841	0.989826
950.386967	0.991094
950.688054	0.991333
950.989103	0.990613
951.290114	0.990058
951.591087	0.989421
951.892021	0.988333
952.192917	0.989203
952.493776	0.988435
952.794596	0.988414
953.095378	0.987559
953.396122	0.987400
953.696828	0.987876
953.997496	0.989067
954.298126	0.991289
954.598718	0.991025
954.899272	0.991230
955.199788	0.990147
955.500266	0.991884
955.800706	0.992222
956.101108	0.993399
956.401472	0.993990
956.701798	0.994120
957.002087	0.992319
957.302337	0.991355
957.602550	0.995276
957.902724	0.994236
958.202861	0.994413
958.502960	0.993840
958.803022	0.993511
959.103045	0.995776
959.403031	0.995733
959.702979	0.994308
960.002889	0.995654
960.302762	0.993979
960.602596	0.995750
960.902393	0.992709
961.202153	0.995685
961.501875	0.997507
961.801559	0.995204
962.101205	0.995375
962.400814	0.995111
962.700385	0.997167
962.999918	0.996607
963.299414	0.995792
963.598873	0.995996
963.898293	0.995557
964.197677	0.995797
964.497022	0.995644
964.796331	0.996386
965.095601	0.995848
965.394835	0.997436
965.694030	0.996697
965.993189	0.996739
966.292309	0.994630
966.591393	0.997247
966.890439	0.996276
967.189447	0.998238
967.488419	0.997480
967.787353	0.996702
968.086249	0.996370
968.385108	0.997242
968.683930	0.996314
968.982714	0.997009
969.281462	0.996375
969.580172	0.995799
969.878844	0.997093
970.177480	0.997171
970.476078	0.996795
970.774639	0.996396
971.073162	0.997891
971.371649	0.995664
971.670098	0.996497
971.968510	0.997202
972.266885	0.995001
972.565223	0.996639
972.863524	0.994675
973.161788	0.996429
973.460014	0.997461
973.758204	0.995042
974.056356	0.997003
974.354471	0.993935
974.652550	0.995024
974.950591	0.995474
975.248595	0.996414
975.546563	0.996021
975.844493	0.998067
976.142386	0.996553
976.440243	0.997145
976.738062	0.997047
977.035845	0.997286
977.333590	0.996354
977.631299	0.997018
977.928971	0.997550
978.226606	0.996604
978.524204	0.996142
978.821765	0.997431
979.119290	0.997036
979.416777	0.995815
979.714228	0.997989
980.011642	0.994917
980.309020	0.997146
980.606360	0.996140
980.903664	0.997928
981.200931	0.996309
981.498162	0.994337
981.795356	0.994391
982.092513	0.994008
982.389633	0.994721
982.686717	0.991473
982.983764	0.992165
983.280775	0.989693
983.577749	0.988561
983.874686	0.990583
984.171587	0.991327
984.468451	0.993754
984.765279	0.994842
985.062070	0.993081
985.358824	0.994890
985.655543	0.994074
985.952224	0.994794
986.248869	0.996225
986.545478	0.997645
986.842050	0.997302
987.138586	0.995230
987.435086	0.996521
987.731549	0.997976
988.027975	0.996610
988.324366	0.997088
988.620719	0.996959
988.917037	0.995706
989.213318	0.997441
989.509563	0.997614
989.805772	0.997842
990.101944	0.998255
990.398080	0.997387
990.694180	0.997644
990.990244	0.997733
991.286271	0.996831
991.582262	0.998389
991.878217	0.997532
992.174136	0.998666
992.470019	0.998439
992.765865	0.996331
993.061676	0.997992
993.357450	0.997034
993.653188	0.996740
993.948890	0.997092
994.244556	0.997526
994.540186	0.996546
994.835780	0.997272
995.131337	0.997435
995.426859	0.997184
995.722345	0.997582
996.017795	0.995311
996.313208	0.997038
996.608586	0.994260
996.903928	0.996887
997.199234	0.993967
997.494504	0.996858
997.789738	0.996308
998.084936	0.995961
998.380099	0.996926
998.675225	0.997889
998.970316	0.997852
999.265371	0.997359
999.560390	0.997436
999.855373	0.998353
1000.150320	0.997524
1000.445232	0.997017
1000.740108	0.998077
1001.034948	0.998442
1001.329752	0.997796
1001.624521	0.998038
1001.919254	0.997527
1002.213951	0.998550
1002.508613	0.997269
1002.803239	0.998910
1003.097829	0.997882
1003.392384	1.000221
1003.686903	0.996926
1003.981386	0.998607
1004.275834	0.998095
1004.570246	0.999067
1004.864623	0.998669
1005.158964	0.999752
1005.453270	0.997860
1005.747540	0.997154
1006.041775	0.998121
1006.335974	0.998632
1006.630138	0.999372
1006.924266	0.998831
1007.218359	1.000074
1007.512416	0.999011
1007.806438	0.998993
1008.100425	0.998953
1008.394376	0.997521
1008.688292	0.997692
1008.982172	1.000050
1009.276017	0.999342
1009.569827	0.998660
1009.863602	0.997746
1010.157341	0.999079
1010.451045	0.998777
1010.744714	0.999225
1011.038347	0.999076
1011.331945	0.997931
1011.625508	0.996195
1011.919036	0.998453
1012.212528	0.999272
1012.505986	0.997144
1012.799408	0.998363
1013.092795	0.999923
1013.386147	0.999440
1013.679464	0.998468
1013.972745	0.997259
1014.265992	0.997079
1014.559204	0.998641
1014.852380	0.998731
1015.145521	0.997486
1015.438628	0.999497
1015.731699	0.998410
1016.024736	0.998875
1016.317737	0.997121
1016.610703	0.997835
1016.903635	0.999578
1017.196531	0.997439
1017.489393	1.000342
1017.782219	0.998826
1018.075011	0.997752
1018.367768	0.998886
1018.660490	0.999103
1018.953177	0.999103
1019.245829	0.999103
