Dividing Wavelength (nm)	Counts (n)	Blue Motor Position (mm): 0.000000	Red Motor Position (mm): 26.300000	
326.493990	1.001036
326.888308	1.001036
327.282561	1.001036
327.676750	0.999490
328.070874	0.999058
328.464933	1.000144
328.858929	0.998389
329.252859	0.999801
329.646726	0.998842
330.040528	0.999157
330.434265	0.999190
330.827938	1.000185
331.221547	1.000469
331.615091	0.999079
332.008571	0.999068
332.401986	0.998436
332.795338	0.999632
333.188625	0.998147
333.581847	1.001124
333.975006	0.999163
334.368100	0.999277
334.761129	0.999302
335.154095	1.000102
335.546996	0.997790
335.939833	0.992967
336.332606	0.994196
336.725315	0.994132
337.117960	0.995339
337.510540	0.994581
337.903056	0.994810
338.295508	0.992843
338.687896	0.994510
339.080220	0.994729
339.472480	0.995024
339.864676	0.994687
340.256807	0.994704
340.648875	0.995413
341.040879	0.995184
341.432818	0.995031
341.824694	0.995094
342.216506	0.995121
342.608253	0.995001
342.999937	0.993820
343.391557	0.994777
343.783113	0.995125
344.174605	0.995390
344.566033	0.995595
344.957397	0.993798
345.348697	0.993803
345.739934	0.994254
346.131106	0.993873
346.522215	0.994383
346.913260	0.994063
347.304241	0.994151
347.695159	0.993895
348.086012	0.993942
348.476802	0.995069
348.867528	0.994326
349.258191	0.994046
349.648789	0.995007
350.039324	0.994817
350.429796	0.994763
350.820203	0.994871
351.210548	0.993999
351.600828	0.995283
351.991045	0.995400
352.381198	0.993599
352.771288	0.994120
353.161314	0.993584
353.551276	0.996298
353.941175	0.993463
354.331010	0.993949
354.720782	0.994965
355.110490	0.994291
355.500135	0.995661
355.889717	0.994076
356.279235	0.994722
356.668689	0.994217
357.058080	0.994446
357.447408	0.995743
357.836672	0.994623
358.225873	0.995292
358.615010	0.994293
359.004084	0.996197
359.393095	0.993768
359.782043	0.994918
360.170927	0.996515
360.559748	0.995380
360.948505	0.993882
361.337199	0.995123
361.725830	0.994762
362.114398	0.994248
362.502903	0.995908
362.891344	0.995782
363.279722	0.993704
363.668037	0.994872
364.056289	0.994865
364.444478	0.995193
364.832603	0.994679
365.220665	0.993774
365.608665	0.994251
365.996601	0.995371
366.384474	0.994107
366.772284	0.994601
367.160031	0.994484
367.547715	0.994427
367.935336	0.994579
368.322893	0.995180
368.710388	0.993796
369.097820	0.995509
369.485189	0.993766
369.872495	0.994121
370.259738	0.992918
370.646918	0.995971
371.034035	0.994856
371.421090	0.994816
371.808081	0.994874
372.195010	0.995433
372.581875	0.995874
372.968678	0.994651
373.355418	0.994726
373.742096	0.993827
374.128710	0.995136
374.515262	0.994447
374.901751	0.994810
375.288177	0.994758
375.674540	0.996041
376.060841	0.995285
376.447079	0.996098
376.833254	0.995577
377.219367	0.995314
377.605417	0.996364
377.991404	0.995764
378.377329	0.994891
378.763191	0.996185
379.148991	0.996447
379.534727	0.996147
379.920402	0.995859
380.306013	0.995688
380.691563	0.996232
381.077049	0.995971
381.462474	0.996561
381.847835	0.996482
382.233134	0.996650
382.618371	0.996769
383.003545	0.996228
383.388657	0.996184
383.773706	0.996524
384.158693	0.996840
384.543618	0.996019
384.928480	0.996620
385.313280	0.996411
385.698017	0.997672
386.082692	0.998139
386.467305	0.996223
386.851856	0.996788
387.236344	0.996746
387.620770	0.995558
388.005133	0.997497
388.389435	0.998083
388.773674	0.996807
389.157851	0.996085
389.541965	0.996606
389.926018	0.996695
390.310008	0.998316
390.693936	0.997512
391.077802	0.996793
391.461606	0.996328
391.845348	0.997315
392.229027	0.997711
392.612645	0.997873
392.996200	0.998070
393.379694	0.997349
393.763125	0.997612
394.146494	0.997269
394.529801	0.997121
394.913047	0.998208
395.296230	0.997872
395.679351	0.997770
396.062410	0.996991
396.445408	0.998305
396.828343	0.997414
397.211217	0.997373
397.594028	0.997624
397.976778	0.996582
398.359466	0.996249
398.742092	0.997528
399.124656	0.997228
399.507158	0.997281
399.889598	0.997806
400.271977	0.998681
400.654294	0.997297
401.036549	0.998353
401.418742	0.998296
401.800874	0.996587
402.182944	0.997094
402.564952	0.997139
402.946898	0.998910
403.328783	0.997941
403.710606	0.997212
404.092367	0.997809
404.474067	0.998148
404.855705	0.997055
405.237282	0.997383
405.618797	0.997640
406.000250	0.997033
406.381642	0.998458
406.762972	0.997721
407.144240	0.997680
407.525447	0.998996
407.906593	0.997977
408.287677	0.997524
408.668700	0.998610
409.049661	0.997257
409.430560	0.997836
409.811399	0.997224
410.192176	0.997674
410.572891	0.997198
410.953545	0.996789
411.334138	0.995957
411.714669	0.997688
412.095139	0.996554
412.475547	0.998517
412.855894	0.996785
413.236180	0.998636
413.616405	0.997663
413.996568	0.998656
414.376670	0.997741
414.756711	0.997229
415.136691	0.997173
415.516609	0.997579
415.896466	0.997362
416.276262	0.996566
416.655997	0.997874
417.035670	0.997149
417.415283	0.997625
417.794834	0.996874
418.174324	0.998496
418.553753	0.997416
418.933121	0.996997
419.312428	0.997640
419.691674	0.996768
420.070859	0.997987
420.449983	0.998011
420.829045	0.997402
421.208047	0.998067
421.586988	0.998754
421.965867	0.998090
422.344686	0.998796
422.723444	0.997871
423.102141	0.997933
423.480777	0.997653
423.859352	0.997005
424.237866	0.996781
424.616319	0.997395
424.994712	0.997560
425.373044	0.998981
425.751314	0.998277
426.129524	0.997513
426.507673	0.998048
426.885762	0.998578
427.263789	0.997990
427.641756	0.997716
428.019662	0.997949
428.397508	0.997010
428.775292	0.996588
429.153016	0.997180
429.530679	0.998364
429.908282	0.997916
430.285824	0.996647
430.663305	0.996949
431.040726	0.997042
431.418086	0.998509
431.795385	0.997489
432.172624	0.996908
432.549802	0.997784
432.926920	0.997660
433.303977	0.996612
433.680974	0.997816
434.057910	0.997248
434.434786	0.998022
434.811601	0.996911
435.188355	0.996225
435.565050	0.996052
435.941683	0.996665
436.318257	0.997504
436.694770	0.996378
437.071222	0.997160
437.447614	0.996983
437.823946	0.996123
438.200218	0.996176
438.576429	0.995940
438.952580	0.995909
439.328670	0.994135
439.704700	0.994734
440.080670	0.994402
440.456580	0.993241
440.832429	0.992391
441.208218	0.992615
441.583947	0.992167
441.959616	0.991137
442.335224	0.991161
442.710773	0.990095
443.086261	0.987748
443.461689	0.987452
443.837057	0.986162
444.212365	0.986327
444.587612	0.984700
444.962800	0.982879
445.337927	0.980921
445.712995	0.980138
446.088002	0.978546
446.462949	0.976126
446.837837	0.974845
447.212664	0.972634
447.587431	0.970324
447.962139	0.967079
448.336786	0.961508
448.711374	0.959787
449.085901	0.959840
449.460369	0.959804
449.834776	0.955393
450.209124	0.951271
450.583412	0.946705
450.957640	0.943525
451.331808	0.941451
451.705917	0.939658
452.079965	0.936271
452.453954	0.931390
452.827883	0.928615
453.201752	0.924168
453.575562	0.922453
453.949311	0.916098
454.323001	0.911308
454.696632	0.907092
455.070202	0.900259
455.443713	0.894841
455.817164	0.888635
456.190556	0.881775
456.563888	0.876544
456.937160	0.870688
457.310373	0.868331
457.683526	0.862963
458.056619	0.856576
458.429653	0.852160
458.802628	0.846332
459.175542	0.838483
459.548398	0.827395
459.921194	0.818027
460.293930	0.811477
460.666607	0.794609
461.039224	0.783814
461.411782	0.775349
461.784280	0.768503
462.156719	0.762948
462.529099	0.757004
462.901419	0.755305
463.273680	0.749291
463.645882	0.742414
464.018024	0.735428
464.390106	0.724411
464.762130	0.710475
465.134094	0.694525
465.505999	0.671824
465.877845	0.649485
466.249631	0.637016
466.621358	0.631556
466.993026	0.629045
467.364634	0.623607
467.736184	0.618939
468.107674	0.614094
468.479105	0.603525
468.850477	0.600674
469.221790	0.595023
469.593043	0.591842
469.964238	0.585021
470.335373	0.576468
470.706449	0.567535
471.077467	0.560517
471.448425	0.528515
471.819324	0.505427
472.190164	0.497487
472.560945	0.508476
472.931667	0.514003
473.302330	0.509551
473.672934	0.510161
474.043479	0.494491
474.413965	0.488964
474.784393	0.483926
475.154761	0.473561
475.525070	0.464716
475.895321	0.462942
476.265513	0.451629
476.635645	0.442151
477.005719	0.435203
477.375734	0.427030
477.745691	0.415887
478.115588	0.406779
478.485427	0.396051
478.855207	0.380146
479.224928	0.360833
479.594591	0.346565
479.964194	0.343165
480.333739	0.338066
480.703226	0.331916
481.072653	0.326657
481.442022	0.318608
481.811333	0.311266
482.180584	0.309304
482.549777	0.308758
482.918912	0.307608
483.287988	0.303720
483.657005	0.299318
484.025964	0.301304
484.394864	0.294531
484.763706	0.291320
485.132489	0.292583
485.501213	0.289570
485.869879	0.285137
486.238487	0.285162
486.607036	0.280787
486.975527	0.281779
487.343959	0.275641
487.712333	0.272233
488.080648	0.271685
488.448905	0.268458
488.817104	0.267400
489.185244	0.260430
489.553326	0.255544
489.921350	0.244336
490.289315	0.226170
490.657222	0.219693
491.025070	0.219001
491.392861	0.219777
491.760593	0.223895
492.128267	0.227715
492.495883	0.231686
492.863440	0.236716
493.230939	0.241889
493.598380	0.242469
493.965763	0.243842
494.333088	0.245596
494.700354	0.245810
495.067563	0.244446
495.434713	0.247021
495.801805	0.244493
496.168839	0.245527
496.535815	0.246100
496.902733	0.245710
497.269593	0.247011
497.636395	0.244319
498.003139	0.244229
498.369825	0.247005
498.736453	0.243096
499.103023	0.244383
499.469535	0.243746
499.835989	0.243537
500.202385	0.244298
500.568723	0.247314
500.935003	0.242107
501.301226	0.246178
501.667390	0.240726
502.033497	0.238452
502.399546	0.241407
502.765537	0.242845
503.131470	0.241121
503.497345	0.237483
503.863163	0.245884
504.228923	0.238963
504.594625	0.237401
504.960269	0.242800
505.325856	0.238012
505.691385	0.241949
506.056856	0.238905
506.422270	0.237931
506.787625	0.240557
507.152924	0.237988
507.518164	0.238595
507.883347	0.239716
508.248472	0.241571
508.613540	0.236659
508.978550	0.238825
509.343503	0.239062
509.708398	0.237050
510.073236	0.234389
510.438016	0.234579
510.802738	0.235169
511.167403	0.234159
511.532010	0.236326
511.896561	0.231611
512.261053	0.230393
512.625488	0.232414
512.989866	0.232669
513.354186	0.232765
513.718449	0.234584
514.082655	0.230979
514.446803	0.233278
514.810894	0.231016
515.174927	0.233531
515.538904	0.232771
515.902822	0.229865
516.266684	0.232231
516.630488	0.233494
516.994235	0.231933
517.357925	0.230990
517.721558	0.229120
518.085133	0.228792
518.448651	0.228522
518.812112	0.231129
519.175516	0.230416
519.538863	0.228359
519.902152	0.229900
520.265385	0.226738
520.628560	0.228284
520.991678	0.228644
521.354739	0.227843
521.717743	0.229085
522.080690	0.229323
522.443580	0.226697
522.806413	0.227510
523.169189	0.226903
523.531908	0.225673
523.894569	0.229525
524.257174	0.229241
524.619722	0.227135
524.982213	0.227974
525.344647	0.226893
525.707025	0.227915
526.069345	0.226043
526.431608	0.227534
526.793815	0.225656
527.155964	0.229522
527.518057	0.228556
527.880093	0.229654
528.242072	0.228379
528.603995	0.230073
528.965860	0.231825
529.327669	0.230652
529.689421	0.231570
530.051117	0.232436
530.412755	0.230205
530.774337	0.232297
531.135862	0.232824
531.497331	0.232093
531.858743	0.235023
532.220098	0.231681
532.581396	0.234110
532.942638	0.234778
533.303824	0.235628
533.664953	0.235425
534.026025	0.236937
534.387040	0.234886
534.747999	0.235183
535.108902	0.233526
535.469748	0.238804
535.830537	0.236771
536.191270	0.237276
536.551947	0.236762
536.912567	0.236565
537.273131	0.238412
537.633638	0.238641
537.994089	0.239001
538.354483	0.240228
538.714821	0.236882
539.075103	0.236645
539.435328	0.237416
539.795497	0.241363
540.155609	0.237721
540.515665	0.235896
540.875665	0.241941
541.235609	0.240542
541.595496	0.240219
541.955328	0.236964
542.315102	0.239410
542.674821	0.240450
543.034483	0.240511
543.394090	0.240369
543.753640	0.242272
544.113134	0.237149
544.472571	0.240549
544.831953	0.237328
545.191278	0.241499
545.550548	0.241299
545.909761	0.237861
546.268918	0.238501
546.628019	0.236767
546.987064	0.239562
547.346053	0.241425
547.704986	0.239059
548.063863	0.239389
548.422684	0.239755
548.781449	0.241489
549.140158	0.238931
549.498811	0.241840
549.857408	0.244997
550.215949	0.239758
550.574434	0.243120
550.932864	0.240975
551.291237	0.239527
551.649555	0.241115
552.007817	0.240815
552.366022	0.241532
552.724173	0.242156
553.082267	0.242000
553.440305	0.239059
553.798288	0.243471
554.156215	0.240081
554.514086	0.241009
554.871902	0.243753
555.229661	0.243022
555.587365	0.243347
555.945014	0.246261
556.302606	0.242981
556.660143	0.245600
557.017625	0.242038
557.375050	0.244227
557.732421	0.241319
558.089735	0.243312
558.446994	0.243500
558.804197	0.242486
559.161345	0.242753
559.518437	0.245972
559.875474	0.243906
560.232455	0.243226
560.589381	0.244165
560.946251	0.244497
561.303065	0.241778
561.659825	0.243748
562.016528	0.244951
562.373177	0.247657
562.729770	0.244971
563.086307	0.247223
563.442789	0.244987
563.799216	0.247742
564.155587	0.246434
564.511904	0.247492
564.868164	0.247804
565.224370	0.247788
565.580520	0.249327
565.936615	0.248985
566.292654	0.252387
566.648638	0.249226
567.004567	0.250140
567.360441	0.250817
567.716260	0.252614
568.072023	0.250569
568.427732	0.251035
568.783385	0.253905
569.138982	0.251576
569.494525	0.251649
569.850013	0.254395
570.205445	0.252625
570.560823	0.255395
570.916145	0.257265
571.271412	0.255699
571.626625	0.257196
571.981782	0.257331
572.336884	0.258470
572.691931	0.258252
573.046923	0.259104
573.401860	0.260665
573.756743	0.262234
574.111570	0.261276
574.466342	0.261469
574.821059	0.260656
575.175722	0.263351
575.530330	0.263164
575.884882	0.263501
576.239380	0.265639
576.593823	0.265733
576.948211	0.265523
577.302544	0.268694
577.656823	0.268419
578.011047	0.268438
578.365216	0.269149
578.719330	0.271159
579.073389	0.271327
579.427394	0.272147
579.781344	0.272791
580.135239	0.274580
580.489080	0.274125
580.842866	0.277353
581.196597	0.276866
581.550273	0.275542
581.903895	0.276696
582.257463	0.274574
582.610975	0.278333
582.964434	0.277410
583.317837	0.279951
583.671186	0.280241
584.024481	0.280255
584.377721	0.282877
584.730906	0.283471
585.084037	0.282626
585.437113	0.284849
585.790135	0.284077
586.143103	0.286758
586.496016	0.288017
586.848874	0.285636
587.201679	0.286344
587.554428	0.289503
587.907124	0.288220
588.259765	0.288984
588.612352	0.289534
588.964884	0.293050
589.317362	0.293073
589.669786	0.292758
590.022155	0.291169
590.374470	0.290638
590.726731	0.292728
591.078937	0.297411
591.431090	0.293686
591.783188	0.297750
592.135232	0.298504
592.487222	0.298504
592.839157	0.296432
593.191038	0.299266
593.542866	0.300723
593.894639	0.304123
594.246358	0.302486
594.598022	0.301916
594.949633	0.305502
595.301190	0.306260
595.652692	0.305406
596.004141	0.301746
596.355535	0.309647
596.706876	0.309826
597.058162	0.312912
597.409395	0.309861
597.760573	0.307436
598.111698	0.310389
598.462768	0.311271
598.813785	0.312579
599.164748	0.313959
599.515657	0.314128
599.866511	0.317402
600.217312	0.312502
600.568060	0.317983
600.918753	0.314469
601.269392	0.315528
601.619978	0.318849
601.970510	0.316414
602.320988	0.316578
602.671412	0.314082
603.021783	0.316600
603.372100	0.317884
603.722363	0.317568
604.072572	0.318365
604.422728	0.318353
604.772830	0.320417
605.122878	0.319856
605.472872	0.320209
605.822813	0.318667
606.172701	0.321537
606.522534	0.318869
606.872314	0.318993
607.222041	0.319725
607.571714	0.318002
607.921333	0.319669
608.270899	0.319120
608.620411	0.315781
608.969870	0.319733
609.319276	0.319863
609.668627	0.319783
610.017926	0.318105
610.367171	0.316914
610.716362	0.317838
611.065500	0.317883
611.414585	0.316456
611.763616	0.317175
612.112594	0.318058
612.461518	0.317290
612.810389	0.314815
613.159207	0.317074
613.507971	0.318996
613.856682	0.314087
614.205340	0.316274
614.553945	0.313123
614.902496	0.316934
615.250994	0.315185
615.599439	0.315554
615.947830	0.315071
616.296169	0.316135
616.644454	0.315328
616.992686	0.315488
617.340864	0.313248
617.688990	0.317106
618.037063	0.313482
618.385082	0.315473
618.733048	0.312196
619.080961	0.314932
619.428821	0.314286
619.776628	0.313689
620.124382	0.315723
620.472083	0.316164
620.819731	0.315586
621.167326	0.319336
621.514868	0.318856
621.862357	0.323475
622.209793	0.322559
622.557176	0.324759
622.904506	0.325738
623.251783	0.328227
623.599007	0.330621
623.946179	0.330073
624.293297	0.331868
624.640363	0.335817
624.987376	0.336851
625.334336	0.339026
625.681243	0.341146
626.028097	0.342169
626.374899	0.342972
626.721647	0.343185
627.068343	0.346474
627.414987	0.347267
627.761577	0.349445
628.108115	0.347927
628.454600	0.353045
628.801032	0.350467
629.147412	0.352521
629.493739	0.352847
629.840014	0.355867
630.186236	0.353455
630.532405	0.359151
630.878521	0.356480
631.224585	0.358685
631.570597	0.362354
631.916556	0.360582
632.262462	0.360632
632.608316	0.362780
632.954117	0.363603
633.299866	0.364436
633.645562	0.364952
633.991206	0.369313
634.336797	0.372135
634.682336	0.374594
635.027823	0.375579
635.373257	0.376550
635.718639	0.380109
636.063968	0.379080
636.409245	0.385113
636.754470	0.385407
637.099642	0.387911
637.444762	0.391238
637.789829	0.390100
638.134845	0.393483
638.479808	0.394796
638.824719	0.394493
639.169577	0.398706
639.514383	0.397021
639.859137	0.401437
640.203839	0.401505
640.548489	0.402001
640.893086	0.403216
641.237632	0.404818
641.582125	0.403863
641.926566	0.405244
642.270955	0.405015
642.615292	0.405111
642.959576	0.404863
643.303809	0.405492
643.647990	0.404610
643.992118	0.405551
644.336195	0.408596
644.680219	0.407111
645.024192	0.407852
645.368112	0.401205
645.711981	0.400348
646.055797	0.395725
646.399562	0.398364
646.743274	0.390178
647.086935	0.387926
647.430544	0.388048
647.774101	0.386677
648.117606	0.386688
648.461059	0.386683
648.804460	0.389648
649.147810	0.394579
649.491108	0.396571
649.834354	0.397267
650.177548	0.402715
650.520690	0.408343
650.863781	0.409509
651.206820	0.408658
651.549807	0.413700
651.892742	0.417213
652.235626	0.416807
652.578458	0.418521
652.921238	0.424426
653.263967	0.422342
653.606644	0.426089
653.949269	0.425344
654.291843	0.429582
654.634365	0.426273
654.976836	0.429060
655.319255	0.429399
655.661622	0.431113
656.003938	0.430852
656.346203	0.434128
656.688416	0.431464
657.030577	0.435457
657.372687	0.437307
657.714746	0.438511
658.056753	0.435257
658.398708	0.438616
658.740612	0.439526
659.082465	0.436448
659.424266	0.436609
659.766016	0.435856
660.107715	0.438720
660.449362	0.437750
660.790958	0.438783
661.132503	0.438982
661.473996	0.436512
661.815438	0.437299
662.156829	0.437574
662.498168	0.438912
662.839456	0.440024
663.180693	0.437890
663.521879	0.437783
663.863013	0.438255
664.204097	0.436718
664.545129	0.433646
664.886110	0.434147
665.227040	0.431593
665.567918	0.434090
665.908746	0.432374
666.249522	0.431600
666.590248	0.432582
666.930922	0.431057
667.271545	0.429613
667.612118	0.429738
667.952639	0.431652
668.293109	0.430236
668.633528	0.432679
668.973896	0.432806
669.314213	0.433248
669.654480	0.435163
669.994695	0.435486
670.334859	0.436072
670.674973	0.436857
671.015035	0.436622
671.355047	0.436267
671.695008	0.437692
672.034918	0.439482
672.374777	0.438885
672.714585	0.439929
673.054342	0.439823
673.394049	0.439384
673.733705	0.437326
674.073310	0.438973
674.412864	0.441920
674.752368	0.441907
675.091820	0.442006
675.431223	0.447477
675.770574	0.446632
676.109875	0.449253
676.449125	0.449471
676.788324	0.451441
677.127473	0.457978
677.466571	0.457075
677.805619	0.459113
678.144616	0.459295
678.483562	0.461513
678.822458	0.463944
679.161303	0.465188
679.500098	0.465042
679.838842	0.466967
680.177535	0.466589
680.516179	0.465404
680.854771	0.464811
681.193314	0.457749
681.531805	0.448769
681.870247	0.438066
682.208638	0.430092
682.546978	0.428719
682.885268	0.430922
683.223508	0.437081
683.561697	0.440597
683.899836	0.443258
684.237925	0.446763
684.575963	0.449671
684.913951	0.452202
685.251889	0.448497
685.589776	0.450351
685.927614	0.452297
686.265401	0.446717
686.603137	0.447893
686.940824	0.442610
687.278460	0.440802
687.616046	0.440032
687.953582	0.434800
688.291068	0.436322
688.628504	0.431823
688.965889	0.433922
689.303224	0.438158
689.640510	0.442494
689.977745	0.448156
690.314930	0.455517
690.652065	0.460061
690.989150	0.468327
691.326185	0.474309
691.663170	0.479309
692.000105	0.486314
692.336990	0.492805
692.673825	0.495445
693.010610	0.502469
693.347345	0.507780
693.684030	0.509073
694.020665	0.513776
694.357251	0.523137
694.693786	0.522076
695.030272	0.526880
695.366707	0.530220
695.703093	0.533874
696.039429	0.530841
696.375716	0.532944
696.711952	0.535812
697.048139	0.537435
697.384276	0.539564
697.720363	0.537902
698.056400	0.536796
698.392388	0.542157
698.728326	0.545714
699.064214	0.547979
699.400053	0.549218
699.735842	0.552128
700.071581	0.555540
700.407270	0.558525
700.742910	0.560722
701.078501	0.567144
701.414042	0.566650
701.749533	0.570397
702.084974	0.579411
702.420366	0.571271
702.755709	0.579295
703.091002	0.587534
703.426246	0.580651
703.761440	0.585613
704.096584	0.591051
704.431679	0.588115
704.766725	0.590270
705.101721	0.591491
705.436668	0.587460
705.771565	0.594328
706.106413	0.591711
706.441212	0.586305
706.775961	0.585987
707.110661	0.588267
707.445311	0.584887
707.779913	0.581981
708.114465	0.580816
708.448967	0.577360
708.783421	0.569529
709.117825	0.563721
709.452180	0.563885
709.786485	0.557778
710.120742	0.547299
710.454949	0.549792
710.789107	0.542040
711.123216	0.532885
711.457275	0.534799
711.791286	0.525353
712.125247	0.524541
712.459159	0.535409
712.793023	0.527356
713.126837	0.532076
713.460602	0.532194
713.794318	0.541690
714.127985	0.540555
714.461602	0.551228
714.795171	0.554039
715.128691	0.561923
715.462162	0.569388
715.795584	0.574815
716.128957	0.577155
716.462281	0.583858
716.795556	0.587917
717.128782	0.592218
717.461960	0.602531
717.795088	0.600600
718.128167	0.606568
718.461198	0.616000
718.794180	0.615771
719.127113	0.618148
719.459997	0.621900
719.792833	0.628550
720.125619	0.629975
720.458357	0.635495
720.791046	0.635220
721.123686	0.638629
721.456278	0.646755
721.788821	0.642633
722.121315	0.647287
722.453761	0.651460
722.786158	0.649154
723.118506	0.645880
723.450805	0.653513
723.783056	0.649181
724.115259	0.646545
724.447412	0.645966
724.779518	0.647801
725.111574	0.646848
725.443582	0.642338
725.775542	0.644543
726.107453	0.636752
726.439315	0.636132
726.771129	0.635306
727.102895	0.628928
727.434612	0.620801
727.766281	0.618966
728.097901	0.618071
728.429473	0.618409
728.760996	0.616660
729.092471	0.616871
729.423897	0.620476
729.755276	0.619479
730.086606	0.619412
730.417887	0.614859
730.749120	0.605088
731.080305	0.596132
731.411442	0.591763
731.742530	0.596376
732.073570	0.596268
732.404562	0.588986
732.735506	0.589829
733.066401	0.594510
733.397249	0.603206
733.728048	0.615170
734.058798	0.627549
734.389501	0.637891
734.720156	0.648037
735.050762	0.655762
735.381320	0.656743
735.711831	0.665540
736.042293	0.670892
736.372707	0.666135
736.703073	0.671365
737.033391	0.673265
737.363661	0.669869
737.693883	0.665409
738.024056	0.665039
738.354182	0.664979
738.684260	0.653655
739.014290	0.650403
739.344272	0.651349
739.674207	0.643857
740.004093	0.644232
740.333931	0.644955
740.663722	0.644052
740.993464	0.644668
741.323159	0.648528
741.652806	0.653494
741.982405	0.657743
742.311956	0.662693
742.641460	0.665064
742.970915	0.668796
743.300323	0.676704
743.629683	0.683737
743.958996	0.684902
744.288260	0.689289
744.617477	0.694790
744.946647	0.696835
745.275768	0.702302
745.604842	0.701605
745.933869	0.711522
746.262847	0.712555
746.591778	0.705905
746.920662	0.712236
747.249498	0.718467
747.578286	0.708889
747.907027	0.705556
748.235720	0.706122
748.564365	0.701522
748.892963	0.701498
749.221514	0.703671
749.550017	0.709512
749.878473	0.708664
750.206881	0.715423
750.535242	0.716448
750.863555	0.716568
751.191821	0.716879
751.520039	0.720226
751.848210	0.725548
752.176334	0.717761
752.504411	0.717702
752.832440	0.724769
753.160421	0.728966
753.488356	0.727501
753.816243	0.724789
754.144082	0.732408
754.471875	0.736296
754.799620	0.732066
755.127318	0.733641
755.454969	0.733055
755.782572	0.732528
756.110129	0.738423
756.437638	0.739755
756.765100	0.736489
757.092515	0.734759
757.419882	0.732331
757.747203	0.739971
758.074477	0.737514
758.401703	0.736029
758.728882	0.730505
759.056014	0.729000
759.383099	0.729107
759.710138	0.729950
760.037129	0.726128
760.364073	0.719673
760.690970	0.722572
761.017820	0.728875
761.344623	0.724023
761.671379	0.714934
761.998088	0.703780
762.324751	0.680406
762.651366	0.639034
762.977935	0.572922
763.304456	0.521166
763.630931	0.510784
763.957359	0.550310
764.283740	0.595086
764.610074	0.621376
764.936362	0.652265
765.262602	0.679237
765.588796	0.699614
765.914943	0.717925
766.241044	0.736705
766.567097	0.743136
766.893104	0.752088
767.219064	0.758774
767.544978	0.765175
767.870845	0.778687
768.196665	0.782080
768.522438	0.779594
768.848165	0.780773
769.173846	0.790116
769.499479	0.794575
769.825066	0.798328
770.150607	0.803916
770.476101	0.798462
770.801548	0.799342
771.126949	0.811846
771.452303	0.814610
771.777611	0.813801
772.102872	0.813067
772.428087	0.818554
772.753256	0.822513
773.078378	0.823686
773.403453	0.832985
773.728482	0.836725
774.053465	0.829880
774.378401	0.833568
774.703291	0.842889
775.028135	0.842178
775.352932	0.843063
775.677683	0.846015
776.002388	0.846320
776.327046	0.845020
776.651658	0.850082
776.976224	0.852413
777.300743	0.852150
777.625216	0.854812
777.949643	0.857113
778.274024	0.856738
778.598359	0.857930
778.922647	0.857864
779.246889	0.857490
779.571086	0.861942
779.895236	0.864911
780.219339	0.861915
780.543397	0.858193
780.867409	0.856210
781.191374	0.859846
781.515294	0.860776
781.839167	0.859404
782.162995	0.862280
782.486776	0.859302
782.810511	0.860839
783.134201	0.864277
783.457844	0.862138
783.781441	0.864511
784.104993	0.872027
784.428498	0.870812
784.751958	0.868193
785.075372	0.869104
785.398739	0.873013
785.722061	0.870126
786.045337	0.864641
786.368568	0.870218
786.691752	0.872607
787.014891	0.857512
787.337983	0.848585
787.661030	0.841852
787.984031	0.824803
788.306987	0.811859
788.629897	0.813936
788.952760	0.817792
789.275579	0.821951
789.598351	0.836538
789.921078	0.850077
790.243759	0.851438
790.566395	0.857957
790.888984	0.863890
791.211529	0.868232
791.534027	0.871531
791.856480	0.874199
792.178888	0.880109
792.501249	0.881621
792.823566	0.883003
793.145836	0.883769
793.468062	0.884871
793.790241	0.885679
794.112375	0.883323
794.434464	0.878556
794.756507	0.877948
795.078505	0.877641
795.400457	0.872382
795.722364	0.860583
796.044226	0.853772
796.366042	0.853038
796.687812	0.856219
797.009538	0.851607
797.331218	0.854893
797.652852	0.860020
797.974442	0.864530
798.295986	0.863836
798.617484	0.865734
798.938938	0.871474
799.260346	0.876272
799.581709	0.877999
799.903026	0.880238
800.224299	0.880690
800.545526	0.885005
800.866708	0.889030
801.187845	0.892774
801.508936	0.892261
801.829983	0.890651
802.150984	0.892104
802.471940	0.898431
802.792851	0.897434
803.113717	0.897992
803.434538	0.896137
803.755314	0.898813
804.076045	0.899987
804.396731	0.900791
804.717372	0.900705
805.037967	0.902619
805.358518	0.900208
805.679024	0.896839
805.999485	0.897931
806.319901	0.897118
806.640272	0.898192
806.960598	0.896835
807.280879	0.894231
807.601115	0.892583
807.921306	0.895823
808.241453	0.896781
808.561554	0.894353
808.881611	0.893986
809.201623	0.896946
809.521590	0.896713
809.841513	0.897939
810.161390	0.896970
810.481223	0.896909
810.801011	0.901360
811.120755	0.903270
811.440453	0.902678
811.760107	0.900390
812.079716	0.900626
812.399281	0.904391
812.718801	0.907371
813.038276	0.907622
813.357707	0.907273
813.677093	0.903562
813.996434	0.906914
814.315731	0.909261
814.634983	0.910212
814.954191	0.909172
815.273354	0.905869
815.592473	0.901667
815.911547	0.901791
816.230577	0.898534
816.549562	0.896009
816.868502	0.897587
817.187399	0.893728
817.506250	0.888678
817.825058	0.890137
818.143821	0.887770
818.462539	0.881750
818.781213	0.874346
819.099843	0.862821
819.418429	0.847254
819.736970	0.830978
820.055466	0.811323
820.373919	0.785673
820.692327	0.752987
821.010691	0.718471
821.329011	0.642034
821.647286	0.527594
821.965517	0.414469
822.283704	0.371968
822.601847	0.373791
822.919945	0.409522
823.237999	0.442331
823.556010	0.488582
823.873976	0.544102
824.191897	0.594917
824.509775	0.637111
824.827609	0.681192
825.145398	0.704300
825.463144	0.706853
825.780845	0.688948
826.098502	0.671136
826.416116	0.625368
826.733685	0.581843
827.051210	0.574236
827.368692	0.588135
827.686129	0.625680
828.003522	0.677213
828.320872	0.725178
828.638177	0.769392
828.955439	0.800877
829.272656	0.823712
829.589830	0.839619
829.906960	0.854950
830.224046	0.867768
830.541088	0.877183
830.858086	0.881565
831.175041	0.887982
831.491952	0.887268
831.808819	0.883855
832.125642	0.877610
832.442421	0.862037
832.759157	0.841035
833.075849	0.795699
833.392497	0.732141
833.709101	0.691926
834.025662	0.701260
834.342179	0.732650
834.658653	0.771819
834.975083	0.807392
835.291469	0.833931
835.607811	0.855703
835.924110	0.871090
836.240366	0.887639
836.556578	0.902486
836.872746	0.909227
837.188871	0.914950
837.504952	0.919677
837.820990	0.923674
838.136984	0.928473
838.452935	0.930508
838.768842	0.931323
839.084706	0.925166
839.400526	0.899791
839.716303	0.860101
840.032037	0.837769
840.347727	0.841480
840.663373	0.859220
840.978977	0.881763
841.294537	0.903200
841.610054	0.918920
841.925527	0.926017
842.240957	0.932595
842.556344	0.940224
842.871687	0.946341
843.186987	0.950046
843.502244	0.949537
843.817458	0.952745
844.132629	0.956177
844.447756	0.960003
844.762840	0.960595
845.077881	0.960178
845.392879	0.959976
845.707833	0.963227
846.022745	0.964377
846.337613	0.964908
846.652438	0.966401
846.967221	0.964215
847.281960	0.965494
847.596656	0.968658
847.911309	0.965630
848.225919	0.968060
848.540485	0.968129
848.855009	0.969513
849.169490	0.968086
849.483928	0.969057
849.798323	0.968863
850.112675	0.970186
850.426984	0.970414
850.741251	0.969116
851.055474	0.970227
851.369654	0.968492
851.683792	0.969585
851.997887	0.969220
852.311938	0.970063
852.625947	0.970606
852.939914	0.967970
853.253837	0.969597
853.567718	0.970106
853.881555	0.970603
854.195350	0.966364
854.509103	0.969329
854.822812	0.969929
855.136479	0.970638
855.450103	0.968563
855.763685	0.968345
856.077224	0.968374
856.390720	0.970919
856.704173	0.970286
857.017584	0.968389
857.330953	0.966717
857.644278	0.968438
857.957561	0.968890
858.270802	0.968651
858.584000	0.968176
858.897155	0.967960
859.210268	0.968407
859.523339	0.968738
859.836367	0.969759
860.149352	0.971341
860.462295	0.967896
860.775195	0.970679
861.088054	0.969222
861.400869	0.969209
861.713642	0.970129
862.026373	0.970029
862.339062	0.970424
862.651708	0.969159
862.964312	0.968128
863.276873	0.970467
863.589392	0.969233
863.901869	0.967527
864.214303	0.965164
864.526696	0.964223
864.839045	0.963586
865.151353	0.961527
865.463619	0.961642
865.775842	0.963008
866.088023	0.961602
866.400162	0.962057
866.712258	0.962865
867.024313	0.964103
867.336325	0.962898
867.648296	0.963481
867.960224	0.962197
868.272110	0.962373
868.583954	0.963539
868.895755	0.963825
869.207515	0.962611
869.519233	0.959530
869.830909	0.962197
870.142542	0.962670
870.454134	0.961507
870.765684	0.961326
871.077191	0.957378
871.388657	0.959769
871.700081	0.957945
872.011463	0.958354
872.322803	0.958215
872.634101	0.957873
872.945357	0.954751
873.256571	0.953479
873.567744	0.952503
873.878874	0.954717
874.189963	0.953053
874.501010	0.951265
874.812015	0.950799
875.122979	0.951133
875.433900	0.953940
875.744780	0.954807
876.055618	0.951722
876.366415	0.950249
876.677169	0.950148
876.987882	0.951651
877.298554	0.951990
877.609183	0.948209
877.919771	0.946249
878.230317	0.943204
878.540822	0.941050
878.851285	0.936194
879.161707	0.928048
879.472087	0.915812
879.782425	0.899800
880.092722	0.866333
880.402977	0.813997
880.713191	0.754884
881.023363	0.697621
881.333494	0.664720
881.643583	0.636774
881.953631	0.636043
882.263637	0.664476
882.573602	0.704499
882.883526	0.728945
883.193408	0.751555
883.503248	0.773538
883.813048	0.802222
884.122806	0.830496
884.432522	0.853031
884.742197	0.872102
885.051831	0.882912
885.361424	0.893296
885.670975	0.905144
885.980485	0.915042
886.289954	0.920734
886.599382	0.925483
886.908768	0.930051
887.218113	0.935488
887.527417	0.939705
887.836680	0.942527
888.145901	0.943932
888.455082	0.947023
888.764221	0.950311
889.073319	0.953900
889.382376	0.953690
889.691392	0.952593
890.000366	0.953184
890.309300	0.954711
890.618193	0.953147
890.927044	0.951439
891.235855	0.952780
891.544625	0.951511
891.853353	0.951997
892.162041	0.949891
892.470687	0.944195
892.779293	0.938061
893.087858	0.934702
893.396381	0.927467
893.704864	0.913750
894.013306	0.890665
894.321707	0.864533
894.630068	0.850633
894.938387	0.846545
895.246665	0.847749
895.554903	0.860539
895.863100	0.872526
896.171256	0.889769
896.479371	0.908002
896.787446	0.920455
897.095480	0.926238
897.403473	0.930272
897.711425	0.932908
898.019336	0.941022
898.327207	0.943538
898.635038	0.945557
898.942827	0.946177
899.250576	0.948787
899.558284	0.953235
899.865952	0.953908
900.173579	0.956187
900.481165	0.955857
900.788711	0.960420
901.096216	0.961713
901.403681	0.962336
901.711105	0.963605
902.018489	0.964606
902.325832	0.963125
902.633135	0.962204
902.940397	0.956618
903.247619	0.945156
903.554800	0.919407
903.861941	0.881363
904.169041	0.846189
904.476101	0.829211
904.783121	0.830350
905.090100	0.846895
905.397039	0.866917
905.703938	0.888734
906.010796	0.907513
906.317614	0.923608
906.624391	0.936351
906.931129	0.945043
907.237826	0.952241
907.544483	0.959768
907.851099	0.963441
908.157675	0.967826
908.464211	0.971013
908.770707	0.973728
909.077163	0.975352
909.383578	0.974401
909.689954	0.974529
909.996289	0.975228
910.302584	0.977942
910.608839	0.979751
910.915054	0.979527
911.221229	0.977979
911.527363	0.977068
911.833458	0.977928
912.139513	0.976347
912.445527	0.975018
912.751502	0.973724
913.057436	0.972423
913.363331	0.970621
913.669186	0.967844
913.975000	0.961935
914.280775	0.956407
914.586510	0.949743
914.892205	0.935724
915.197859	0.915688
915.503475	0.888713
915.809050	0.869792
916.114585	0.865010
916.420081	0.863562
916.725536	0.858445
917.030952	0.867460
917.336328	0.879357
917.641665	0.894450
917.946961	0.910210
918.252218	0.921168
918.557435	0.928936
918.862612	0.936834
919.167750	0.942951
919.472848	0.947365
919.777906	0.953709
920.082925	0.958073
920.387904	0.963188
920.692843	0.963975
920.997743	0.965118
921.302603	0.967842
921.607423	0.969743
921.912204	0.971545
922.216946	0.971614
922.521647	0.973868
922.826310	0.975570
923.130932	0.976656
923.435516	0.978594
923.740059	0.980078
924.044564	0.978605
924.349028	0.980682
924.653454	0.982377
924.957840	0.984446
925.262186	0.984649
925.566493	0.984036
925.870761	0.983736
926.174989	0.985923
926.479178	0.987770
926.783328	0.988413
927.087438	0.988088
927.391509	0.986564
927.695541	0.988718
927.999533	0.989365
928.303486	0.990539
928.607400	0.991570
928.911275	0.988785
929.215110	0.990396
929.518906	0.991306
929.822663	0.989866
930.126381	0.990366
930.430060	0.989739
930.733699	0.990350
931.037299	0.989516
931.340861	0.990937
931.644383	0.989592
931.947866	0.989493
932.251309	0.990147
932.554714	0.991242
932.858080	0.989679
933.161407	0.990065
933.464694	0.989922
933.767943	0.990004
934.071153	0.991085
934.374323	0.991851
934.677455	0.991076
934.980548	0.991725
935.283602	0.990969
935.586617	0.991390
935.889593	0.990534
936.192530	0.991270
936.495428	0.989990
936.798287	0.991077
937.101108	0.989984
937.403890	0.989127
937.706632	0.988732
938.009336	0.987114
938.312002	0.986452
938.614628	0.984412
938.917216	0.983416
939.219765	0.981544
939.522275	0.983704
939.824747	0.983497
940.127179	0.983503
940.429573	0.983988
940.731929	0.984182
941.034246	0.983839
941.336524	0.985675
941.638763	0.985633
941.940964	0.986175
942.243126	0.987304
942.545250	0.987835
942.847335	0.989588
943.149381	0.987817
943.451389	0.988257
943.753359	0.987035
944.055290	0.990125
944.357182	0.989673
944.659036	0.988518
944.960851	0.988883
945.262628	0.989465
945.564367	0.990548
945.866067	0.988954
946.167729	0.989512
946.469352	0.988691
946.770937	0.989984
947.072484	0.989964
947.373992	0.989900
947.675462	0.990981
947.976893	0.990125
948.278286	0.990598
948.579641	0.991406
948.880958	0.990715
949.182236	0.990460
949.483476	0.991891
949.784678	0.990088
950.085841	0.991276
950.386967	0.990175
950.688054	0.990679
950.989103	0.990691
951.290114	0.989219
951.591087	0.989122
951.892021	0.989753
952.192917	0.989553
952.493776	0.988053
952.794596	0.987044
953.095378	0.988270
953.396122	0.988772
953.696828	0.988320
953.997496	0.989725
954.298126	0.990493
954.598718	0.989954
954.899272	0.991204
955.199788	0.989670
955.500266	0.992162
955.800706	0.992728
956.101108	0.993054
956.401472	0.993711
956.701798	0.993562
957.002087	0.993673
957.302337	0.993531
957.602550	0.995298
957.902724	0.994234
958.202861	0.995544
958.502960	0.995924
958.803022	0.993679
959.103045	0.995705
959.403031	0.995417
959.702979	0.994787
960.002889	0.996441
960.302762	0.994409
960.602596	0.995540
960.902393	0.995968
961.202153	0.996586
961.501875	0.997191
961.801559	0.996360
962.101205	0.994735
962.400814	0.995523
962.700385	0.995621
962.999918	0.996227
963.299414	0.996071
963.598873	0.995343
963.898293	0.995936
964.197677	0.995187
964.497022	0.996936
964.796331	0.997094
965.095601	0.996860
965.394835	0.995783
965.694030	0.996376
965.993189	0.996651
966.292309	0.996797
966.591393	0.997372
966.890439	0.996964
967.189447	0.996302
967.488419	0.997598
967.787353	0.996063
968.086249	0.995131
968.385108	0.996733
968.683930	0.996778
968.982714	0.996280
969.281462	0.997583
969.580172	0.996769
969.878844	0.996194
970.177480	0.996480
970.476078	0.997592
970.774639	0.996815
971.073162	0.996757
971.371649	0.996529
971.670098	0.996780
971.968510	0.997907
972.266885	0.995318
972.565223	0.996224
972.863524	0.995508
973.161788	0.995818
973.460014	0.998495
973.758204	0.994697
974.056356	0.995520
974.354471	0.994024
974.652550	0.996598
974.950591	0.996098
975.248595	0.996620
975.546563	0.997061
975.844493	0.996622
976.142386	0.996400
976.440243	0.996181
976.738062	0.996982
977.035845	0.997840
977.333590	0.996476
977.631299	0.998679
977.928971	0.997065
978.226606	0.996688
978.524204	0.994829
978.821765	0.998441
979.119290	0.997221
979.416777	0.996801
979.714228	0.996813
980.011642	0.995805
980.309020	0.997284
980.606360	0.996951
980.903664	0.997476
981.200931	0.995763
981.498162	0.995325
981.795356	0.994977
982.092513	0.993622
982.389633	0.993164
982.686717	0.991382
982.983764	0.991652
983.280775	0.991372
983.577749	0.990130
983.874686	0.990552
984.171587	0.991052
984.468451	0.994604
984.765279	0.994695
985.062070	0.994194
985.358824	0.995047
985.655543	0.995384
985.952224	0.996344
986.248869	0.995427
986.545478	0.996804
986.842050	0.998942
987.138586	0.995832
987.435086	0.996750
987.731549	0.997940
988.027975	0.996120
988.324366	0.997827
988.620719	0.997595
988.917037	0.995429
989.213318	0.998801
989.509563	0.997725
989.805772	0.999012
990.101944	0.998515
990.398080	0.996419
990.694180	0.996829
990.990244	0.996388
991.286271	0.998630
991.582262	0.997314
991.878217	0.996818
992.174136	0.997804
992.470019	0.997732
992.765865	0.997894
993.061676	0.997754
993.357450	0.997367
993.653188	0.997639
993.948890	0.996572
994.244556	0.997214
994.540186	0.997001
994.835780	0.996218
995.131337	0.997659
995.426859	0.996825
995.722345	0.998028
996.017795	0.996017
996.313208	0.995943
996.608586	0.995000
996.903928	0.996374
997.199234	0.995787
997.494504	0.996420
997.789738	0.995393
998.084936	0.995666
998.380099	0.998062
998.675225	0.997831
998.970316	0.996865
999.265371	0.997217
999.560390	0.997221
999.855373	0.997702
1000.150320	0.997852
1000.445232	0.998881
1000.740108	0.997631
1001.034948	0.996770
1001.329752	0.998807
1001.624521	0.997761
1001.919254	0.997404
1002.213951	0.998139
1002.508613	0.997708
1002.803239	0.998291
1003.097829	0.998592
1003.392384	0.998174
1003.686903	0.997933
1003.981386	0.997908
1004.275834	0.997735
1004.570246	0.998001
1004.864623	0.998503
1005.158964	0.999357
1005.453270	0.998532
1005.747540	0.997907
1006.041775	0.997904
1006.335974	0.999659
1006.630138	0.998662
1006.924266	0.999435
1007.218359	0.999699
1007.512416	0.999270
1007.806438	0.999177
1008.100425	0.999238
1008.394376	0.998548
1008.688292	0.997973
1008.982172	0.999506
1009.276017	0.999227
1009.569827	0.998590
1009.863602	0.998084
1010.157341	0.999182
1010.451045	0.999577
1010.744714	0.999392
1011.038347	0.999671
1011.331945	0.998414
1011.625508	0.997218
1011.919036	0.999312
1012.212528	0.998336
1012.505986	0.997938
1012.799408	0.998821
1013.092795	0.998663
1013.386147	0.999075
1013.679464	0.998963
1013.972745	0.997019
1014.265992	0.998069
1014.559204	0.998900
1014.852380	0.998386
1015.145521	0.997954
1015.438628	0.999632
1015.731699	0.998376
1016.024736	0.997518
1016.317737	0.998410
1016.610703	0.998733
1016.903635	0.999294
1017.196531	0.998469
1017.489393	0.999912
1017.782219	0.998803
1018.075011	0.997893
1018.367768	0.998907
1018.660490	0.998832
1018.953177	0.998832
1019.245829	0.998832
