Dividing Wavelength (nm)	Counts (n)	Blue Motor Position (mm): 0.000000	Red Motor Position (mm): 42.800000	
326.493990	0.999427
326.888308	0.999427
327.282561	0.999427
327.676750	0.999835
328.070874	0.998976
328.464933	0.999921
328.858929	0.998669
329.252859	0.999962
329.646726	0.999102
330.040528	1.000090
330.434265	0.998986
330.827938	1.002510
331.221547	1.001122
331.615091	0.999995
332.008571	0.999217
332.401986	0.999609
332.795338	0.999715
333.188625	0.998436
333.581847	1.000350
333.975006	0.999159
334.368100	0.998733
334.761129	0.999296
335.154095	1.001486
335.546996	0.999529
335.939833	0.997277
336.332606	0.997381
336.725315	0.999735
337.117960	0.999323
337.510540	0.998068
337.903056	0.999033
338.295508	0.997380
338.687896	0.997871
339.080220	0.997798
339.472480	0.998508
339.864676	0.998220
340.256807	0.998586
340.648875	0.998120
341.040879	0.998629
341.432818	0.997550
341.824694	0.998400
342.216506	0.999398
342.608253	0.997572
342.999937	0.997565
343.391557	0.998761
343.783113	0.998139
344.174605	0.998284
344.566033	0.999046
344.957397	0.997287
345.348697	0.997144
345.739934	0.999572
346.131106	0.998121
346.522215	0.996364
346.913260	0.997904
347.304241	0.998308
347.695159	0.997365
348.086012	0.996789
348.476802	0.998300
348.867528	0.997977
349.258191	0.997104
349.648789	0.998646
350.039324	0.998764
350.429796	0.998041
350.820203	0.998413
351.210548	0.998697
351.600828	0.998287
351.991045	0.998543
352.381198	0.998154
352.771288	0.998455
353.161314	0.997919
353.551276	0.998357
353.941175	0.997866
354.331010	0.998243
354.720782	0.999428
355.110490	0.997583
355.500135	1.000369
355.889717	0.998338
356.279235	0.999430
356.668689	0.998374
357.058080	0.998650
357.447408	0.999668
357.836672	0.998995
358.225873	0.998392
358.615010	0.997946
359.004084	0.998709
359.393095	0.998248
359.782043	0.997921
360.170927	0.999217
360.559748	0.999343
360.948505	0.997842
361.337199	0.998491
361.725830	0.999199
362.114398	0.998711
362.502903	0.999280
362.891344	0.998705
363.279722	0.998217
363.668037	0.998774
364.056289	0.999065
364.444478	0.999006
364.832603	0.998895
365.220665	0.997979
365.608665	0.997971
365.996601	0.997898
366.384474	0.998714
366.772284	0.998901
367.160031	0.997817
367.547715	0.997050
367.935336	0.998858
368.322893	0.998835
368.710388	0.998054
369.097820	0.998333
369.485189	0.997192
369.872495	0.996913
370.259738	0.996052
370.646918	0.998680
371.034035	0.999157
371.421090	0.999143
371.808081	0.997431
372.195010	0.998920
372.581875	0.998983
372.968678	0.998236
373.355418	0.998649
373.742096	0.998271
374.128710	0.999266
374.515262	0.997657
374.901751	0.998083
375.288177	0.999128
375.674540	0.998033
376.060841	0.997375
376.447079	0.998602
376.833254	0.999169
377.219367	0.999299
377.605417	0.997953
377.991404	0.998530
378.377329	0.997812
378.763191	0.998377
379.148991	0.999013
379.534727	0.999048
379.920402	0.998852
380.306013	0.998083
380.691563	1.000055
381.077049	0.997977
381.462474	0.999070
381.847835	0.998384
382.233134	0.998154
382.618371	0.999184
383.003545	0.997772
383.388657	0.998130
383.773706	0.999971
384.158693	0.998472
384.543618	0.999207
384.928480	0.999545
385.313280	0.998910
385.698017	1.000622
386.082692	0.999777
386.467305	0.999336
386.851856	0.998324
387.236344	0.998195
387.620770	0.997381
388.005133	0.999141
388.389435	0.999744
388.773674	0.998372
389.157851	0.999584
389.541965	0.998803
389.926018	0.998808
390.310008	1.000408
390.693936	0.998556
391.077802	0.998783
391.461606	0.998284
391.845348	0.998820
392.229027	0.999972
392.612645	0.998567
392.996200	1.000600
393.379694	0.998827
393.763125	0.999612
394.146494	0.999672
394.529801	0.999130
394.913047	0.999930
395.296230	0.999572
395.679351	0.999853
396.062410	0.997996
396.445408	0.999206
396.828343	0.999342
397.211217	0.998588
397.594028	1.000313
397.976778	0.998728
398.359466	0.998858
398.742092	0.998702
399.124656	0.998522
399.507158	0.999488
399.889598	0.999211
400.271977	0.999165
400.654294	0.998919
401.036549	1.000246
401.418742	1.000024
401.800874	0.998400
402.182944	0.998966
402.564952	0.998532
402.946898	1.000435
403.328783	0.998816
403.710606	0.999221
404.092367	1.000499
404.474067	1.000089
404.855705	1.000218
405.237282	0.999511
405.618797	0.998759
406.000250	0.998879
406.381642	0.999239
406.762972	1.000367
407.144240	0.999858
407.525447	0.999600
407.906593	0.999621
408.287677	0.999325
408.668700	0.999396
409.049661	0.998180
409.430560	0.999373
409.811399	0.998481
410.192176	0.999316
410.572891	0.998628
410.953545	0.998691
411.334138	0.998615
411.714669	0.999808
412.095139	0.999224
412.475547	1.000638
412.855894	0.999094
413.236180	0.999527
413.616405	1.000292
413.996568	0.999804
414.376670	1.000277
414.756711	0.999688
415.136691	0.999879
415.516609	0.999556
415.896466	0.999924
416.276262	0.997885
416.655997	0.999371
417.035670	0.999153
417.415283	1.000087
417.794834	0.999888
418.174324	0.999075
418.553753	0.999329
418.933121	0.999246
419.312428	0.999460
419.691674	0.999687
420.070859	0.999701
420.449983	0.999931
420.829045	0.999588
421.208047	0.999932
421.586988	1.000069
421.965867	0.999148
422.344686	0.999877
422.723444	0.999311
423.102141	0.999556
423.480777	1.000127
423.859352	0.999627
424.237866	0.999501
424.616319	0.999938
424.994712	0.999977
425.373044	1.000000
425.751314	0.998939
426.129524	0.999211
426.507673	0.999112
426.885762	1.000363
427.263789	0.999953
427.641756	0.999514
428.019662	1.000123
428.397508	0.999767
428.775292	0.999078
429.153016	0.999630
429.530679	1.000121
429.908282	1.000366
430.285824	0.999719
430.663305	0.999815
431.040726	0.999713
431.418086	1.000456
431.795385	0.999853
432.172624	0.999034
432.549802	1.000040
432.926920	1.000053
433.303977	0.999220
433.680974	1.000130
434.057910	0.999742
434.434786	1.000282
434.811601	0.999886
435.188355	0.999487
435.565050	0.999194
435.941683	0.999846
436.318257	1.000804
436.694770	0.999599
437.071222	1.000041
437.447614	1.000393
437.823946	0.999648
438.200218	1.000175
438.576429	0.999760
438.952580	1.000332
439.328670	0.999505
439.704700	1.001054
440.080670	1.000317
440.456580	0.999709
440.832429	0.998998
441.208218	0.999274
441.583947	0.999338
441.959616	1.000182
442.335224	0.998768
442.710773	1.000335
443.086261	0.999911
443.461689	0.999729
443.837057	0.999541
444.212365	1.000275
444.587612	1.000128
444.962800	0.999310
445.337927	0.999996
445.712995	0.999994
446.088002	1.000905
446.462949	0.999415
446.837837	1.000613
447.212664	1.000195
447.587431	1.000301
447.962139	0.999885
448.336786	0.999392
448.711374	1.000388
449.085901	0.999841
449.460369	0.999830
449.834776	0.999852
450.209124	0.999539
450.583412	0.999847
450.957640	0.999611
451.331808	0.999225
451.705917	0.999437
452.079965	0.999326
452.453954	0.999915
452.827883	0.999559
453.201752	0.999547
453.575562	1.000335
453.949311	1.000859
454.323001	0.999364
454.696632	0.999869
455.070202	0.999976
455.443713	0.999092
455.817164	1.000457
456.190556	1.000213
456.563888	0.999399
456.937160	1.000940
457.310373	0.999494
457.683526	0.999853
458.056619	0.999804
458.429653	1.000204
458.802628	0.999784
459.175542	0.999656
459.548398	0.999997
459.921194	0.999648
460.293930	0.999788
460.666607	0.999599
461.039224	0.998795
461.411782	0.999437
461.784280	0.999081
462.156719	1.001342
462.529099	1.000190
462.901419	0.999850
463.273680	0.999965
463.645882	1.000140
464.018024	0.999840
464.390106	1.000600
464.762130	1.001156
465.134094	0.999358
465.505999	1.000260
465.877845	0.999690
466.249631	0.999889
466.621358	1.000287
466.993026	1.000521
467.364634	1.000357
467.736184	1.000942
468.107674	1.000342
468.479105	0.999611
468.850477	1.000144
469.221790	1.000760
469.593043	1.000575
469.964238	1.001388
470.335373	0.999800
470.706449	1.000717
471.077467	1.000363
471.448425	1.000224
471.819324	1.001139
472.190164	0.999690
472.560945	1.000433
472.931667	1.000200
473.302330	0.999575
473.672934	1.000365
474.043479	1.000597
474.413965	1.000137
474.784393	0.999722
475.154761	1.000381
475.525070	1.000201
475.895321	1.001008
476.265513	1.000520
476.635645	1.000182
477.005719	1.000391
477.375734	1.000101
477.745691	1.000473
478.115588	1.000523
478.485427	1.000490
478.855207	0.999876
479.224928	1.000120
479.594591	0.999704
479.964194	1.000065
480.333739	1.000602
480.703226	1.000062
481.072653	1.000793
481.442022	1.001162
481.811333	0.999762
482.180584	1.000324
482.549777	0.999794
482.918912	1.000448
483.287988	1.000443
483.657005	1.000247
484.025964	1.000576
484.394864	1.001116
484.763706	1.000877
485.132489	1.000060
485.501213	1.000178
485.869879	1.000358
486.238487	1.000857
486.607036	1.000766
486.975527	0.999840
487.343959	1.000111
487.712333	0.999706
488.080648	1.000175
488.448905	0.999968
488.817104	1.000064
489.185244	1.000686
489.553326	1.000558
489.921350	0.999988
490.289315	1.000001
490.657222	1.000513
491.025070	1.000737
491.392861	1.000752
491.760593	1.000826
492.128267	0.999445
492.495883	1.000597
492.863440	1.000424
493.230939	1.000062
493.598380	1.000284
493.965763	1.000081
494.333088	1.000399
494.700354	0.999663
495.067563	1.000094
495.434713	0.999957
495.801805	1.001191
496.168839	1.000336
496.535815	1.000357
496.902733	1.000126
497.269593	0.999877
497.636395	1.000089
498.003139	0.999756
498.369825	1.001036
498.736453	1.000700
499.103023	0.999526
499.469535	1.000110
499.835989	1.000504
500.202385	1.000905
500.568723	0.999869
500.935003	1.000874
501.301226	1.000380
501.667390	0.999772
502.033497	1.000295
502.399546	1.000635
502.765537	1.000114
503.131470	0.999640
503.497345	1.000058
503.863163	1.000584
504.228923	1.000095
504.594625	1.000504
504.960269	1.000164
505.325856	1.000546
505.691385	1.000524
506.056856	1.000491
506.422270	1.000039
506.787625	1.000531
507.152924	0.999772
507.518164	1.000169
507.883347	1.000228
508.248472	0.999269
508.613540	1.000326
508.978550	0.999817
509.343503	0.999527
509.708398	1.000112
510.073236	1.000343
510.438016	1.000648
510.802738	0.999757
511.167403	1.000341
511.532010	1.000210
511.896561	1.000086
512.261053	1.001108
512.625488	0.999743
512.989866	1.000008
513.354186	0.999930
513.718449	1.000076
514.082655	1.000165
514.446803	1.000154
514.810894	1.000360
515.174927	0.999832
515.538904	0.999721
515.902822	0.999767
516.266684	1.000825
516.630488	1.000683
516.994235	0.999723
517.357925	1.000125
517.721558	1.000164
518.085133	0.999203
518.448651	1.000813
518.812112	1.000265
519.175516	0.999688
519.538863	1.000324
519.902152	0.999961
520.265385	0.999972
520.628560	0.999897
520.991678	1.000415
521.354739	1.000603
521.717743	1.000482
522.080690	1.000473
522.443580	1.000092
522.806413	1.000502
523.169189	0.999863
523.531908	0.999468
523.894569	1.000247
524.257174	0.999878
524.619722	0.999938
524.982213	1.000028
525.344647	1.000447
525.707025	0.999458
526.069345	0.999138
526.431608	0.999980
526.793815	0.999914
527.155964	0.999757
527.518057	1.000089
527.880093	0.999634
528.242072	0.999401
528.603995	0.999120
528.965860	1.000482
529.327669	0.999669
529.689421	0.999450
530.051117	0.999614
530.412755	0.999694
530.774337	1.000412
531.135862	0.999474
531.497331	0.999580
531.858743	0.999947
532.220098	1.000214
532.581396	1.000066
532.942638	0.999842
533.303824	0.999258
533.664953	0.999614
534.026025	0.999804
534.387040	0.999236
534.747999	0.999864
535.108902	0.999827
535.469748	0.999319
535.830537	0.999008
536.191270	0.999401
536.551947	0.998967
536.912567	0.998980
537.273131	0.999691
537.633638	0.999079
537.994089	0.998889
538.354483	0.999103
538.714821	0.999269
539.075103	0.999225
539.435328	1.000057
539.795497	0.998950
540.155609	0.998587
540.515665	0.998643
540.875665	0.998875
541.235609	0.998892
541.595496	0.998978
541.955328	0.997949
542.315102	0.999062
542.674821	0.999283
543.034483	0.998592
543.394090	0.998287
543.753640	0.998686
544.113134	0.999643
544.472571	0.998964
544.831953	0.998807
545.191278	0.998770
545.550548	1.000028
545.909761	0.998047
546.268918	0.999085
546.628019	0.999061
546.987064	0.998249
547.346053	0.999206
547.704986	0.999007
548.063863	0.998608
548.422684	0.999219
548.781449	0.999769
549.140158	0.998345
549.498811	0.999328
549.857408	0.998415
550.215949	0.999374
550.574434	0.998357
550.932864	0.999075
551.291237	0.999372
551.649555	0.998804
552.007817	0.998903
552.366022	0.998505
552.724173	0.998436
553.082267	0.998832
553.440305	0.998320
553.798288	0.998679
554.156215	0.998409
554.514086	0.999150
554.871902	0.998584
555.229661	0.999049
555.587365	0.998801
555.945014	0.999805
556.302606	0.998905
556.660143	0.998832
557.017625	0.998542
557.375050	0.998969
557.732421	0.998603
558.089735	0.999098
558.446994	0.998746
558.804197	0.999510
559.161345	0.999509
559.518437	0.999890
559.875474	0.998513
560.232455	0.999096
560.589381	0.999695
560.946251	0.998784
561.303065	0.999195
561.659825	0.999003
562.016528	0.998742
562.373177	0.999208
562.729770	0.998919
563.086307	0.999284
563.442789	0.998946
563.799216	0.999300
564.155587	0.998728
564.511904	0.998311
564.868164	0.998227
565.224370	0.998487
565.580520	0.998710
565.936615	0.998634
566.292654	0.998986
566.648638	0.998637
567.004567	0.998298
567.360441	0.998895
567.716260	0.999174
568.072023	0.999069
568.427732	0.998577
568.783385	0.998941
569.138982	0.999135
569.494525	0.998339
569.850013	0.999226
570.205445	0.999302
570.560823	0.998951
570.916145	0.998268
571.271412	0.999870
571.626625	0.998817
571.981782	0.998217
572.336884	0.999673
572.691931	0.998733
573.046923	0.998401
573.401860	0.998894
573.756743	0.998546
574.111570	0.999059
574.466342	0.999198
574.821059	0.999398
575.175722	0.998818
575.530330	0.999839
575.884882	0.998595
576.239380	0.999449
576.593823	0.998813
576.948211	0.998978
577.302544	0.998871
577.656823	0.999033
578.011047	0.999599
578.365216	0.999604
578.719330	0.998392
579.073389	0.999535
579.427394	0.998646
579.781344	0.998906
580.135239	0.998620
580.489080	0.999238
580.842866	0.999204
581.196597	0.998496
581.550273	0.998511
581.903895	0.999234
582.257463	0.998671
582.610975	0.998386
582.964434	0.999343
583.317837	0.999706
583.671186	0.998817
584.024481	0.998343
584.377721	0.998730
584.730906	0.999061
585.084037	0.998457
585.437113	0.998107
585.790135	0.998879
586.143103	0.998413
586.496016	0.999714
586.848874	0.999122
587.201679	0.998569
587.554428	0.998630
587.907124	0.998705
588.259765	0.999058
588.612352	0.998968
588.964884	0.998891
589.317362	0.998433
589.669786	0.998559
590.022155	0.999220
590.374470	0.998527
590.726731	0.998988
591.078937	0.998081
591.431090	0.997824
591.783188	0.998214
592.135232	0.998341
592.487222	0.999062
592.839157	0.998042
593.191038	0.999018
593.542866	0.998388
593.894639	0.999266
594.246358	0.997707
594.598022	0.998840
594.949633	0.999603
595.301190	0.998046
595.652692	0.998162
596.004141	0.998866
596.355535	0.997976
596.706876	0.997825
597.058162	0.998109
597.409395	0.997985
597.760573	0.997863
598.111698	0.997538
598.462768	0.998133
598.813785	0.998044
599.164748	0.997914
599.515657	0.997523
599.866511	0.997729
600.217312	0.997583
600.568060	0.997983
600.918753	0.997735
601.269392	0.998316
601.619978	0.997386
601.970510	0.997460
602.320988	0.997559
602.671412	0.997318
603.021783	0.997935
603.372100	0.998090
603.722363	0.998274
604.072572	0.997129
604.422728	0.997920
604.772830	0.997900
605.122878	0.997222
605.472872	0.997813
605.822813	0.996797
606.172701	0.996982
606.522534	0.997759
606.872314	0.997538
607.222041	0.996175
607.571714	0.997357
607.921333	0.996565
608.270899	0.996701
608.620411	0.996918
608.969870	0.996092
609.319276	0.996236
609.668627	0.997023
610.017926	0.995729
610.367171	0.995445
610.716362	0.996177
611.065500	0.995411
611.414585	0.995548
611.763616	0.996070
612.112594	0.995456
612.461518	0.994692
612.810389	0.995313
613.159207	0.994985
613.507971	0.994464
613.856682	0.995255
614.205340	0.994805
614.553945	0.993259
614.902496	0.993422
615.250994	0.993477
615.599439	0.994434
615.947830	0.993560
616.296169	0.993814
616.644454	0.993475
616.992686	0.993292
617.340864	0.992764
617.688990	0.992572
618.037063	0.992142
618.385082	0.991327
618.733048	0.990933
619.080961	0.991448
619.428821	0.991171
619.776628	0.990559
620.124382	0.989329
620.472083	0.989090
620.819731	0.989813
621.167326	0.989781
621.514868	0.989916
621.862357	0.989420
622.209793	0.990041
622.557176	0.987653
622.904506	0.988823
623.251783	0.988025
623.599007	0.988824
623.946179	0.987994
624.293297	0.987923
624.640363	0.987270
624.987376	0.986150
625.334336	0.987607
625.681243	0.986292
626.028097	0.986581
626.374899	0.986626
626.721647	0.985486
627.068343	0.985656
627.414987	0.984849
627.761577	0.984555
628.108115	0.983911
628.454600	0.983978
628.801032	0.982520
629.147412	0.982878
629.493739	0.981918
629.840014	0.981796
630.186236	0.981659
630.532405	0.980786
630.878521	0.980053
631.224585	0.978728
631.570597	0.979276
631.916556	0.978147
632.262462	0.977865
632.608316	0.977021
632.954117	0.975795
633.299866	0.975479
633.645562	0.974667
633.991206	0.975494
634.336797	0.974955
634.682336	0.974138
635.027823	0.973826
635.373257	0.974407
635.718639	0.973169
636.063968	0.971984
636.409245	0.972492
636.754470	0.971541
637.099642	0.972083
637.444762	0.971660
637.789829	0.969757
638.134845	0.969059
638.479808	0.968490
638.824719	0.968030
639.169577	0.967999
639.514383	0.966622
639.859137	0.965961
640.203839	0.965647
640.548489	0.963557
640.893086	0.964198
641.237632	0.963577
641.582125	0.962387
641.926566	0.960603
642.270955	0.960626
642.615292	0.960206
642.959576	0.959168
643.303809	0.958298
643.647990	0.956838
643.992118	0.956975
644.336195	0.957528
644.680219	0.954661
645.024192	0.954691
645.368112	0.952317
645.711981	0.950640
646.055797	0.949948
646.399562	0.948584
646.743274	0.945063
647.086935	0.944675
647.430544	0.942471
647.774101	0.941389
648.117606	0.941419
648.461059	0.939944
648.804460	0.938608
649.147810	0.938807
649.491108	0.938905
649.834354	0.938668
650.177548	0.938508
650.520690	0.937696
650.863781	0.936610
651.206820	0.935603
651.549807	0.936523
651.892742	0.935082
652.235626	0.934176
652.578458	0.933067
652.921238	0.932381
653.263967	0.932198
653.606644	0.931534
653.949269	0.929229
654.291843	0.928851
654.634365	0.927864
654.976836	0.926088
655.319255	0.926514
655.661622	0.924757
656.003938	0.922702
656.346203	0.923423
656.688416	0.921584
657.030577	0.921481
657.372687	0.920724
657.714746	0.920333
658.056753	0.918321
658.398708	0.916951
658.740612	0.918424
659.082465	0.914474
659.424266	0.914552
659.766016	0.912347
660.107715	0.911246
660.449362	0.910096
660.790958	0.909242
661.132503	0.906179
661.473996	0.905840
661.815438	0.904515
662.156829	0.904515
662.498168	0.903121
662.839456	0.903148
663.180693	0.901103
663.521879	0.900641
663.863013	0.899323
664.204097	0.895899
664.545129	0.895142
664.886110	0.892833
665.227040	0.890639
665.567918	0.891188
665.908746	0.887682
666.249522	0.886725
666.590248	0.886381
666.930922	0.885638
667.271545	0.882855
667.612118	0.882353
667.952639	0.881508
668.293109	0.878847
668.633528	0.878436
668.973896	0.878304
669.314213	0.876351
669.654480	0.874762
669.994695	0.874845
670.334859	0.874501
670.674973	0.870596
671.015035	0.871125
671.355047	0.868545
671.695008	0.867867
672.034918	0.867679
672.374777	0.865885
672.714585	0.864955
673.054342	0.863347
673.394049	0.860982
673.733705	0.859217
674.073310	0.856851
674.412864	0.859401
674.752368	0.856686
675.091820	0.854845
675.431223	0.855615
675.770574	0.854190
676.109875	0.854775
676.449125	0.852660
676.788324	0.852383
677.127473	0.854154
677.466571	0.851556
677.805619	0.850100
678.144616	0.848691
678.483562	0.848072
678.822458	0.847862
679.161303	0.847072
679.500098	0.845835
679.838842	0.846657
680.177535	0.843976
680.516179	0.843204
680.854771	0.841719
681.193314	0.838148
681.531805	0.834015
681.870247	0.826689
682.208638	0.823085
682.546978	0.822325
682.885268	0.821862
683.223508	0.822290
683.561697	0.822551
683.899836	0.822206
684.237925	0.821770
684.575963	0.821620
684.913951	0.822129
685.251889	0.817422
685.589776	0.817594
685.927614	0.819089
686.265401	0.813169
686.603137	0.813455
686.940824	0.809402
687.278460	0.808387
687.616046	0.806172
687.953582	0.802799
688.291068	0.802612
688.628504	0.798546
688.965889	0.798577
689.303224	0.799047
689.640510	0.798863
689.977745	0.799833
690.314930	0.801452
690.652065	0.802530
690.989150	0.805125
691.326185	0.804651
691.663170	0.803487
692.000105	0.805993
692.336990	0.807678
692.673825	0.806363
693.010610	0.808909
693.347345	0.810682
693.684030	0.806924
694.020665	0.809589
694.357251	0.813243
694.693786	0.810022
695.030272	0.811793
695.366707	0.810903
695.703093	0.811821
696.039429	0.809538
696.375716	0.806457
696.711952	0.808541
697.048139	0.808647
697.384276	0.808342
697.720363	0.805860
698.056400	0.802816
698.392388	0.805699
698.728326	0.807024
699.064214	0.808988
699.400053	0.806703
699.735842	0.805815
700.071581	0.806675
700.407270	0.806461
700.742910	0.805730
701.078501	0.809605
701.414042	0.806628
701.749533	0.807176
702.084974	0.812435
702.420366	0.804593
702.755709	0.808519
703.091002	0.812296
703.426246	0.805488
703.761440	0.809796
704.096584	0.812332
704.431679	0.807766
704.766725	0.808036
705.101721	0.807926
705.436668	0.803968
705.771565	0.808188
706.106413	0.805921
706.441212	0.800603
706.775961	0.799226
707.110661	0.802072
707.445311	0.799835
707.779913	0.794903
708.114465	0.794895
708.448967	0.794012
708.783421	0.787053
709.117825	0.783805
709.452180	0.784557
709.786485	0.780989
710.120742	0.775179
710.454949	0.775864
710.789107	0.771327
711.123216	0.765919
711.457275	0.767342
711.791286	0.760426
712.125247	0.759812
712.459159	0.767019
712.793023	0.763484
713.126837	0.760213
713.460602	0.759525
713.794318	0.766966
714.127985	0.762444
714.461602	0.765583
714.795171	0.767505
715.128691	0.769189
715.462162	0.771805
715.795584	0.773637
716.128957	0.773369
716.462281	0.777573
716.795556	0.778001
717.128782	0.778701
717.461960	0.783287
717.795088	0.780703
718.128167	0.783710
718.461198	0.788548
718.794180	0.787222
719.127113	0.787281
719.459997	0.788343
719.792833	0.791299
720.125619	0.791656
720.458357	0.794068
720.791046	0.791916
721.123686	0.794200
721.456278	0.797685
721.788821	0.795280
722.121315	0.796943
722.453761	0.799581
722.786158	0.796141
723.118506	0.793675
723.450805	0.799276
723.783056	0.796667
724.115259	0.791384
724.447412	0.790298
724.779518	0.792251
725.111574	0.790830
725.443582	0.787309
725.775542	0.788617
726.107453	0.783415
726.439315	0.781605
726.771129	0.781843
727.102895	0.778107
727.434612	0.772869
727.766281	0.770593
728.097901	0.771211
728.429473	0.769940
728.760996	0.767455
729.092471	0.767059
729.423897	0.768236
729.755276	0.765985
730.086606	0.764920
730.417887	0.762858
730.749120	0.756430
731.080305	0.748263
731.411442	0.745859
731.742530	0.748858
732.073570	0.747473
732.404562	0.740368
732.735506	0.741645
733.066401	0.744183
733.397249	0.748811
733.728048	0.754030
734.058798	0.759667
734.389501	0.764151
734.720156	0.770647
735.050762	0.776097
735.381320	0.773823
735.711831	0.780755
736.042293	0.783880
736.372707	0.778923
736.703073	0.781457
737.033391	0.785675
737.363661	0.781402
737.693883	0.777380
738.024056	0.776078
738.354182	0.778039
738.684260	0.769656
739.014290	0.767463
739.344272	0.769033
739.674207	0.763904
740.004093	0.763421
740.333931	0.764078
740.663722	0.763108
740.993464	0.762130
741.323159	0.763971
741.652806	0.766654
741.982405	0.768974
742.311956	0.771062
742.641460	0.771148
742.970915	0.772827
743.300323	0.776415
743.629683	0.780457
743.958996	0.781366
744.288260	0.782613
744.617477	0.786748
744.946647	0.786753
745.275768	0.790110
745.604842	0.788175
745.933869	0.796491
746.262847	0.795478
746.591778	0.788399
746.920662	0.794185
747.249498	0.799448
747.578286	0.790888
747.907027	0.787890
748.235720	0.789975
748.564365	0.785046
748.892963	0.783932
749.221514	0.786392
749.550017	0.790392
749.878473	0.788786
750.206881	0.792669
750.535242	0.793917
750.863555	0.793526
751.191821	0.792639
751.520039	0.795656
751.848210	0.799435
752.176334	0.792060
752.504411	0.791361
752.832440	0.797689
753.160421	0.801295
753.488356	0.798102
753.816243	0.795846
754.144082	0.802807
754.471875	0.805775
754.799620	0.800380
755.127318	0.801953
755.454969	0.800876
755.782572	0.800605
756.110129	0.804966
756.437638	0.806797
756.765100	0.802735
757.092515	0.801319
757.419882	0.799866
757.747203	0.803409
758.074477	0.803873
758.401703	0.800963
758.728882	0.796523
759.056014	0.796090
759.383099	0.795424
759.710138	0.797104
760.037129	0.794275
760.364073	0.787942
760.690970	0.789086
761.017820	0.794212
761.344623	0.791322
761.671379	0.781689
761.998088	0.771688
762.324751	0.754173
762.651366	0.724917
762.977935	0.677947
763.304456	0.637032
763.630931	0.625897
763.957359	0.653481
764.283740	0.686463
764.610074	0.704249
764.936362	0.728415
765.262602	0.749160
765.588796	0.765750
765.914943	0.779742
766.241044	0.793708
766.567097	0.797969
766.893104	0.804470
767.219064	0.810118
767.544978	0.814005
767.870845	0.825318
768.196665	0.828234
768.522438	0.825597
768.848165	0.825469
769.173846	0.833377
769.499479	0.837023
769.825066	0.839143
770.150607	0.843002
770.476101	0.837706
770.801548	0.837895
771.126949	0.848156
771.452303	0.850961
771.777611	0.849600
772.102872	0.848795
772.428087	0.853363
772.753256	0.855378
773.078378	0.856829
773.403453	0.864515
773.728482	0.868813
774.053465	0.860958
774.378401	0.864124
774.703291	0.871429
775.028135	0.871165
775.352932	0.872401
775.677683	0.874094
776.002388	0.874192
776.327046	0.874267
776.651658	0.875917
776.976224	0.878587
777.300743	0.879229
777.625216	0.881802
777.949643	0.881989
778.274024	0.881425
778.598359	0.882682
778.922647	0.882201
779.246889	0.882587
779.571086	0.885724
779.895236	0.888559
780.219339	0.885781
780.543397	0.883006
780.867409	0.882092
781.191374	0.883735
781.515294	0.884759
781.839167	0.883330
782.162995	0.886095
782.486776	0.882942
782.810511	0.883398
783.134201	0.886823
783.457844	0.884665
783.781441	0.885574
784.104993	0.891502
784.428498	0.892223
784.751958	0.887833
785.075372	0.889216
785.398739	0.892466
785.722061	0.889568
786.045337	0.884621
786.368568	0.889026
786.691752	0.892639
787.014891	0.878534
787.337983	0.872132
787.661030	0.867937
787.984031	0.853004
788.306987	0.841199
788.629897	0.842545
788.952760	0.844740
789.275579	0.847293
789.598351	0.860545
789.921078	0.871579
790.243759	0.872981
790.566395	0.876001
790.888984	0.883232
791.211529	0.886837
791.534027	0.889243
791.856480	0.891352
792.178888	0.895932
792.501249	0.898790
792.823566	0.898833
793.145836	0.898868
793.468062	0.901165
793.790241	0.900496
794.112375	0.898461
794.434464	0.894907
794.756507	0.894699
795.078505	0.894209
795.400457	0.890656
795.722364	0.880637
796.044226	0.874008
796.366042	0.872540
796.687812	0.876472
797.009538	0.872015
797.331218	0.874464
797.652852	0.878883
797.974442	0.882783
798.295986	0.882066
798.617484	0.883726
798.938938	0.888742
799.260346	0.892215
799.581709	0.894267
799.903026	0.896459
800.224299	0.896250
800.545526	0.899403
800.866708	0.902555
801.187845	0.907307
801.508936	0.906060
801.829983	0.904936
802.150984	0.906032
802.471940	0.911210
802.792851	0.910539
803.113717	0.911256
803.434538	0.909790
803.755314	0.910873
804.076045	0.913226
804.396731	0.913788
804.717372	0.913057
805.037967	0.915434
805.358518	0.912580
805.679024	0.910455
805.999485	0.910994
806.319901	0.910970
806.640272	0.911977
806.960598	0.909588
807.280879	0.907998
807.601115	0.906071
807.921306	0.909316
808.241453	0.909210
808.561554	0.906892
808.881611	0.907648
809.201623	0.909012
809.521590	0.908602
809.841513	0.909421
810.161390	0.910540
810.481223	0.909415
810.801011	0.913472
811.120755	0.914406
811.440453	0.914228
811.760107	0.912753
812.079716	0.912040
812.399281	0.915560
812.718801	0.917544
813.038276	0.918474
813.357707	0.917797
813.677093	0.914570
813.996434	0.918003
814.315731	0.919191
814.634983	0.920218
814.954191	0.919246
815.273354	0.917234
815.592473	0.912611
815.911547	0.912364
816.230577	0.909710
816.549562	0.908447
816.868502	0.908553
817.187399	0.904413
817.506250	0.900068
817.825058	0.902615
818.143821	0.899466
818.462539	0.894877
818.781213	0.887696
819.099843	0.877026
819.418429	0.863195
819.736970	0.848268
820.055466	0.830496
820.373919	0.806725
820.692327	0.775844
821.010691	0.744605
821.329011	0.678322
821.647286	0.583597
821.965517	0.491240
822.283704	0.456091
822.601847	0.455096
822.919945	0.480204
823.237999	0.503206
823.556010	0.541493
823.873976	0.590268
824.191897	0.633251
824.509775	0.671383
824.827609	0.711951
825.145398	0.732659
825.463144	0.734162
825.780845	0.718579
826.098502	0.703074
826.416116	0.662585
826.733685	0.623331
827.051210	0.616029
827.368692	0.626768
827.686129	0.659723
828.003522	0.707835
828.320872	0.750449
828.638177	0.790507
828.955439	0.819751
829.272656	0.839709
829.589830	0.854794
829.906960	0.868953
830.224046	0.879971
830.541088	0.890028
830.858086	0.893974
831.175041	0.899655
831.491952	0.898460
831.808819	0.895667
832.125642	0.887694
832.442421	0.874919
832.759157	0.856644
833.075849	0.815106
833.392497	0.756523
833.709101	0.718248
834.025662	0.728193
834.342179	0.756431
834.658653	0.791846
834.975083	0.824070
835.291469	0.848245
835.607811	0.868157
835.924110	0.884064
836.240366	0.898601
836.556578	0.912225
836.872746	0.917574
837.188871	0.924162
837.504952	0.929106
837.820990	0.931103
838.136984	0.934845
838.452935	0.937141
838.768842	0.938227
839.084706	0.932967
839.400526	0.909760
839.716303	0.872821
840.032037	0.853447
840.347727	0.856823
840.663373	0.872702
840.978977	0.891193
841.294537	0.912877
841.610054	0.927009
841.925527	0.933785
842.240957	0.940332
842.556344	0.946383
842.871687	0.951325
843.186987	0.956591
843.502244	0.956172
843.817458	0.957791
844.132629	0.960438
844.447756	0.965978
844.762840	0.965122
845.077881	0.964663
845.392879	0.964774
845.707833	0.968331
846.022745	0.969718
846.337613	0.969003
846.652438	0.970997
846.967221	0.968992
847.281960	0.969807
847.596656	0.972637
847.911309	0.970760
848.225919	0.970993
848.540485	0.972597
848.855009	0.973612
849.169490	0.972897
849.483928	0.973827
849.798323	0.974279
850.112675	0.975924
850.426984	0.974620
850.741251	0.974493
851.055474	0.974333
851.369654	0.972794
851.683792	0.974028
851.997887	0.974965
852.311938	0.975309
852.625947	0.973923
852.939914	0.972158
853.253837	0.973727
853.567718	0.975151
853.881555	0.975145
854.195350	0.972572
854.509103	0.974662
854.822812	0.975448
855.136479	0.973869
855.450103	0.974957
855.763685	0.972952
856.077224	0.972932
856.390720	0.974413
856.704173	0.974155
857.017584	0.972899
857.330953	0.972102
857.644278	0.972516
857.957561	0.972597
858.270802	0.972824
858.584000	0.972726
858.897155	0.970871
859.210268	0.972136
859.523339	0.973321
859.836367	0.973220
860.149352	0.975268
860.462295	0.973130
860.775195	0.974066
861.088054	0.973331
861.400869	0.973972
861.713642	0.975180
862.026373	0.974647
862.339062	0.975775
862.651708	0.971911
862.964312	0.972452
863.276873	0.973988
863.589392	0.973844
863.901869	0.970284
864.214303	0.969790
864.526696	0.968732
864.839045	0.968749
865.151353	0.967409
865.463619	0.967337
865.775842	0.967196
866.088023	0.967047
866.400162	0.966941
866.712258	0.966880
867.024313	0.967252
867.336325	0.968349
867.648296	0.968770
867.960224	0.967128
868.272110	0.965748
868.583954	0.968859
868.895755	0.968824
869.207515	0.966798
869.519233	0.964231
869.830909	0.966106
870.142542	0.967998
870.454134	0.967274
870.765684	0.966164
871.077191	0.963906
871.388657	0.963939
871.700081	0.962521
872.011463	0.964631
872.322803	0.963947
872.634101	0.963050
872.945357	0.961018
873.256571	0.958630
873.567744	0.959266
873.878874	0.959197
874.189963	0.957676
874.501010	0.957430
874.812015	0.955441
875.122979	0.958390
875.433900	0.958678
875.744780	0.960428
876.055618	0.956805
876.366415	0.956446
876.677169	0.956179
876.987882	0.958431
877.298554	0.957789
877.609183	0.954068
877.919771	0.952456
878.230317	0.949333
878.540822	0.947344
878.851285	0.942561
879.161707	0.936143
879.472087	0.924254
879.782425	0.911395
880.092722	0.878516
880.402977	0.831580
880.713191	0.777351
881.023363	0.726688
881.333494	0.697076
881.643583	0.670820
881.953631	0.668298
882.263637	0.694153
882.573602	0.730910
882.883526	0.753534
883.193408	0.774808
883.503248	0.793186
883.813048	0.818180
884.122806	0.845973
884.432522	0.867027
884.742197	0.885054
885.051831	0.894591
885.361424	0.902931
885.670975	0.914018
885.980485	0.922857
886.289954	0.928328
886.599382	0.932594
886.908768	0.936406
887.218113	0.942292
887.527417	0.947620
887.836680	0.949630
888.145901	0.950293
888.455082	0.952459
888.764221	0.957129
889.073319	0.959431
889.382376	0.959717
889.691392	0.959693
890.000366	0.958934
890.309300	0.960076
890.618193	0.960091
890.927044	0.957902
891.235855	0.957898
891.544625	0.957649
891.853353	0.958698
892.162041	0.956412
892.470687	0.950475
892.779293	0.945800
893.087858	0.942229
893.396381	0.935348
893.704864	0.923334
894.013306	0.901194
894.321707	0.876990
894.630068	0.864667
894.938387	0.860374
895.246665	0.861318
895.554903	0.871919
895.863100	0.883137
896.171256	0.899397
896.479371	0.917233
896.787446	0.929788
897.095480	0.934798
897.403473	0.937910
897.711425	0.940368
898.019336	0.948678
898.327207	0.950948
898.635038	0.952186
898.942827	0.952241
899.250576	0.956601
899.558284	0.959034
899.865952	0.960005
900.173579	0.960959
900.481165	0.960896
900.788711	0.965879
901.096216	0.967170
901.403681	0.967441
901.711105	0.968222
902.018489	0.969195
902.325832	0.968264
902.633135	0.967767
902.940397	0.961705
903.247619	0.950834
903.554800	0.928664
903.861941	0.892361
904.169041	0.861244
904.476101	0.845589
904.783121	0.846463
905.090100	0.861092
905.397039	0.880768
905.703938	0.899946
906.010796	0.917352
906.317614	0.932940
906.624391	0.942715
906.931129	0.952216
907.237826	0.958938
907.544483	0.965264
907.851099	0.969795
908.157675	0.973674
908.464211	0.975763
908.770707	0.977866
909.077163	0.978884
909.383578	0.978351
909.689954	0.980423
909.996289	0.980304
910.302584	0.982573
910.608839	0.983597
910.915054	0.983327
911.221229	0.982272
911.527363	0.982254
911.833458	0.982708
912.139513	0.981349
912.445527	0.979667
912.751502	0.977026
913.057436	0.977919
913.363331	0.974627
913.669186	0.972360
913.975000	0.967606
914.280775	0.961699
914.586510	0.956831
914.892205	0.945312
915.197859	0.926348
915.503475	0.901726
915.809050	0.883773
916.114585	0.878901
916.420081	0.877137
916.725536	0.874382
917.030952	0.880692
917.336328	0.891877
917.641665	0.906576
917.946961	0.920878
918.252218	0.930848
918.557435	0.937737
918.862612	0.945585
919.167750	0.950579
919.472848	0.955638
919.777906	0.959729
920.082925	0.964793
920.387904	0.968438
920.692843	0.969602
920.997743	0.969204
921.302603	0.973089
921.607423	0.974782
921.912204	0.976821
922.216946	0.977800
922.521647	0.978473
922.826310	0.979735
923.130932	0.981463
923.435516	0.983572
923.740059	0.984618
924.044564	0.983528
924.349028	0.984753
924.653454	0.988053
924.957840	0.988526
925.262186	0.989112
925.566493	0.987899
925.870761	0.988941
926.174989	0.990599
926.479178	0.990755
926.783328	0.991217
927.087438	0.992558
927.391509	0.990947
927.695541	0.993599
927.999533	0.992867
928.303486	0.993413
928.607400	0.994211
928.911275	0.993094
929.215110	0.993450
929.518906	0.994007
929.822663	0.992102
930.126381	0.994170
930.430060	0.993853
930.733699	0.992347
931.037299	0.992649
931.340861	0.993272
931.644383	0.993223
931.947866	0.992132
932.251309	0.993792
932.554714	0.993974
932.858080	0.993355
933.161407	0.994742
933.464694	0.993658
933.767943	0.992837
934.071153	0.994206
934.374323	0.994685
934.677455	0.994346
934.980548	0.995141
935.283602	0.994248
935.586617	0.994739
935.889593	0.993481
936.192530	0.994275
936.495428	0.994378
936.798287	0.993524
937.101108	0.993613
937.403890	0.991809
937.706632	0.992498
938.009336	0.989982
938.312002	0.990801
938.614628	0.987963
938.917216	0.987746
939.219765	0.986296
939.522275	0.987039
939.824747	0.987155
940.127179	0.987619
940.429573	0.988507
940.731929	0.987821
941.034246	0.988143
941.336524	0.990365
941.638763	0.990140
941.940964	0.990825
942.243126	0.989980
942.545250	0.991393
942.847335	0.991997
943.149381	0.991699
943.451389	0.990946
943.753359	0.992251
944.055290	0.994074
944.357182	0.993295
944.659036	0.991076
944.960851	0.993023
945.262628	0.993562
945.564367	0.992887
945.866067	0.993259
946.167729	0.992799
946.469352	0.992724
946.770937	0.991517
947.072484	0.994355
947.373992	0.994585
947.675462	0.993967
947.976893	0.993943
948.278286	0.992966
948.579641	0.994890
948.880958	0.993975
949.182236	0.993347
949.483476	0.993100
949.784678	0.992976
950.085841	0.994394
950.386967	0.993373
950.688054	0.994437
950.989103	0.993405
951.290114	0.991044
951.591087	0.992426
951.892021	0.991984
952.192917	0.991382
952.493776	0.991256
952.794596	0.991245
953.095378	0.990507
953.396122	0.991177
953.696828	0.990177
953.997496	0.992512
954.298126	0.994050
954.598718	0.992784
954.899272	0.992710
955.199788	0.993177
955.500266	0.995266
955.800706	0.995797
956.101108	0.995091
956.401472	0.996069
956.701798	0.996245
957.002087	0.995333
957.302337	0.996713
957.602550	0.996238
957.902724	0.998427
958.202861	0.997101
958.502960	0.997435
958.803022	0.995773
959.103045	0.998099
959.403031	0.998044
959.702979	0.997383
960.002889	0.997393
960.302762	0.996196
960.602596	0.997708
960.902393	0.996920
961.202153	0.998150
961.501875	0.999241
961.801559	0.997008
962.101205	0.997325
962.400814	0.998472
962.700385	0.998015
962.999918	0.999284
963.299414	0.998320
963.598873	0.997391
963.898293	0.998116
964.197677	0.997909
964.497022	0.998404
964.796331	0.999060
965.095601	0.999246
965.394835	0.997578
965.694030	0.998630
965.993189	0.999421
966.292309	0.997271
966.591393	0.999552
966.890439	0.998831
967.189447	0.998568
967.488419	0.999411
967.787353	0.998295
968.086249	0.997977
968.385108	0.999145
968.683930	0.998815
968.982714	0.998109
969.281462	0.999012
969.580172	0.997869
969.878844	0.998176
970.177480	0.998206
970.476078	0.999062
970.774639	0.999512
971.073162	0.999041
971.371649	0.998849
971.670098	0.997272
971.968510	0.999679
972.266885	0.997257
972.565223	0.999489
972.863524	0.997585
973.161788	0.997061
973.460014	0.999201
973.758204	0.997013
974.056356	0.998253
974.354471	0.995853
974.652550	0.997782
974.950591	0.997446
975.248595	0.997263
975.546563	0.997966
975.844493	0.999338
976.142386	0.998893
976.440243	0.998166
976.738062	0.998530
977.035845	0.999412
977.333590	0.998249
977.631299	0.999852
977.928971	0.998235
978.226606	0.998525
978.524204	0.996688
978.821765	1.000223
979.119290	0.997965
979.416777	0.997754
979.714228	0.999758
980.011642	0.997420
980.309020	0.998413
980.606360	0.999409
980.903664	0.998833
981.200931	0.997486
981.498162	0.997105
981.795356	0.996357
982.092513	0.995288
982.389633	0.997126
982.686717	0.993248
982.983764	0.993811
983.280775	0.992865
983.577749	0.993467
983.874686	0.994183
984.171587	0.992455
984.468451	0.996430
984.765279	0.995909
985.062070	0.996306
985.358824	0.997069
985.655543	0.996881
985.952224	0.997537
986.248869	0.997705
986.545478	0.998946
986.842050	0.999454
987.138586	0.997874
987.435086	0.998939
987.731549	0.998440
988.027975	0.999130
988.324366	0.998818
988.620719	0.998539
988.917037	0.998200
989.213318	0.999033
989.509563	0.999587
989.805772	1.000092
990.101944	0.999553
990.398080	0.999492
990.694180	0.999132
990.990244	0.998372
991.286271	0.998926
991.582262	0.999130
991.878217	0.999738
992.174136	0.999295
992.470019	0.999189
992.765865	0.998494
993.061676	0.998449
993.357450	0.999422
993.653188	0.997599
993.948890	0.998918
994.244556	0.999629
994.540186	0.997990
994.835780	0.998250
995.131337	0.998837
995.426859	0.999116
995.722345	0.999347
996.017795	0.997736
996.313208	0.997144
996.608586	0.997008
996.903928	0.998644
997.199234	0.997001
997.494504	0.998561
997.789738	0.996447
998.084936	0.996859
998.380099	0.999364
998.675225	0.998116
998.970316	0.999170
999.265371	0.999823
999.560390	0.999541
999.855373	1.000069
1000.150320	0.998382
1000.445232	1.000183
1000.740108	0.999395
1001.034948	0.998455
1001.329752	1.000282
1001.624521	1.000175
1001.919254	0.999036
1002.213951	0.998838
1002.508613	0.999569
1002.803239	1.000064
1003.097829	0.999880
1003.392384	0.999935
1003.686903	0.998572
1003.981386	0.999272
1004.275834	0.999904
1004.570246	0.998496
1004.864623	0.999206
1005.158964	1.001004
1005.453270	0.998461
1005.747540	0.998154
1006.041775	0.998083
1006.335974	1.000083
1006.630138	0.999143
1006.924266	1.001186
1007.218359	1.000612
1007.512416	1.000247
1007.806438	0.999939
1008.100425	1.001992
1008.394376	0.999467
1008.688292	0.999826
1008.982172	1.001823
1009.276017	1.000026
1009.569827	1.000100
1009.863602	1.000973
1010.157341	0.999325
1010.451045	0.999516
1010.744714	0.998328
1011.038347	0.999086
1011.331945	0.999144
1011.625508	0.998070
1011.919036	1.000604
1012.212528	0.999792
1012.505986	0.998981
1012.799408	0.999792
1013.092795	0.999050
1013.386147	1.000059
1013.679464	1.000957
1013.972745	0.999051
1014.265992	0.998594
1014.559204	1.000194
1014.852380	0.999702
1015.145521	0.999705
1015.438628	0.999472
1015.731699	0.999198
1016.024736	0.999674
1016.317737	0.998815
1016.610703	1.000087
1016.903635	0.999614
1017.196531	0.999202
1017.489393	1.001458
1017.782219	0.999145
1018.075011	0.999707
1018.367768	0.998954
1018.660490	1.000170
1018.953177	1.000170
1019.245829	1.000170
