Dividing Wavelength (nm)	Counts (n)	Blue Motor Position (mm): 0.000000	Red Motor Position (mm): 14.600000	
326.493990	1.000352
326.888308	1.000352
327.282561	1.000352
327.676750	1.000405
328.070874	0.998910
328.464933	1.001084
328.858929	0.999307
329.252859	0.999751
329.646726	0.999252
330.040528	0.999328
330.434265	0.998873
330.827938	1.000295
331.221547	0.999949
331.615091	0.999975
332.008571	1.000436
332.401986	0.999603
332.795338	1.000934
333.188625	0.998444
333.581847	1.001010
333.975006	0.999220
334.368100	0.998912
334.761129	0.999345
335.154095	1.001156
335.546996	0.998113
335.939833	0.992617
336.332606	0.992636
336.725315	0.994476
337.117960	0.995006
337.510540	0.993829
337.903056	0.993643
338.295508	0.992981
338.687896	0.993838
339.080220	0.994015
339.472480	0.993647
339.864676	0.993172
340.256807	0.994448
340.648875	0.994463
341.040879	0.994878
341.432818	0.992623
341.824694	0.993727
342.216506	0.994900
342.608253	0.994502
342.999937	0.993076
343.391557	0.993409
343.783113	0.994547
344.174605	0.993305
344.566033	0.994681
344.957397	0.992798
345.348697	0.994186
345.739934	0.993718
346.131106	0.994096
346.522215	0.993366
346.913260	0.993693
347.304241	0.993958
347.695159	0.992706
348.086012	0.993190
348.476802	0.993866
348.867528	0.993321
349.258191	0.992232
349.648789	0.993714
350.039324	0.993193
350.429796	0.994429
350.820203	0.993825
351.210548	0.993533
351.600828	0.993184
351.991045	0.993930
352.381198	0.992988
352.771288	0.992799
353.161314	0.992966
353.551276	0.994992
353.941175	0.992309
354.331010	0.993159
354.720782	0.994656
355.110490	0.993160
355.500135	0.994483
355.889717	0.993033
356.279235	0.992477
356.668689	0.994457
357.058080	0.992627
357.447408	0.995156
357.836672	0.994491
358.225873	0.993713
358.615010	0.993008
359.004084	0.995508
359.393095	0.994023
359.782043	0.993087
360.170927	0.994674
360.559748	0.994541
360.948505	0.994528
361.337199	0.993143
361.725830	0.994859
362.114398	0.993678
362.502903	0.994452
362.891344	0.993646
363.279722	0.993852
363.668037	0.994199
364.056289	0.993695
364.444478	0.995781
364.832603	0.993781
365.220665	0.992751
365.608665	0.992960
365.996601	0.992936
366.384474	0.993204
366.772284	0.994771
367.160031	0.992452
367.547715	0.992085
367.935336	0.993845
368.322893	0.993072
368.710388	0.992371
369.097820	0.993096
369.485189	0.993001
369.872495	0.993117
370.259738	0.992013
370.646918	0.994000
371.034035	0.994085
371.421090	0.993237
371.808081	0.992258
372.195010	0.994164
372.581875	0.992997
372.968678	0.992464
373.355418	0.994061
373.742096	0.992713
374.128710	0.993310
374.515262	0.992410
374.901751	0.993279
375.288177	0.992854
375.674540	0.993768
376.060841	0.992513
376.447079	0.992471
376.833254	0.993043
377.219367	0.993976
377.605417	0.993080
377.991404	0.994070
378.377329	0.992437
378.763191	0.993007
379.148991	0.993819
379.534727	0.993177
379.920402	0.993375
380.306013	0.992727
380.691563	0.994407
381.077049	0.992674
381.462474	0.993720
381.847835	0.993781
382.233134	0.992964
382.618371	0.993167
383.003545	0.993724
383.388657	0.993991
383.773706	0.993710
384.158693	0.992886
384.543618	0.993310
384.928480	0.994720
385.313280	0.993633
385.698017	0.994004
386.082692	0.994299
386.467305	0.994084
386.851856	0.992939
387.236344	0.993053
387.620770	0.992816
388.005133	0.993817
388.389435	0.994060
388.773674	0.992536
389.157851	0.993206
389.541965	0.993232
389.926018	0.993010
390.310008	0.994466
390.693936	0.992147
391.077802	0.992390
391.461606	0.991816
391.845348	0.991433
392.229027	0.991690
392.612645	0.989251
392.996200	0.990256
393.379694	0.987922
393.763125	0.986000
394.146494	0.984089
394.529801	0.981069
394.913047	0.978457
395.296230	0.976440
395.679351	0.972321
396.062410	0.968273
396.445408	0.964689
396.828343	0.960389
397.211217	0.955951
397.594028	0.953044
397.976778	0.947256
398.359466	0.941563
398.742092	0.935981
399.124656	0.932638
399.507158	0.924443
399.889598	0.919262
400.271977	0.910971
400.654294	0.905448
401.036549	0.898070
401.418742	0.891586
401.800874	0.880175
402.182944	0.872870
402.564952	0.861654
402.946898	0.855368
403.328783	0.847571
403.710606	0.842610
404.092367	0.825156
404.474067	0.818442
404.855705	0.809753
405.237282	0.805760
405.618797	0.789986
406.000250	0.778536
406.381642	0.766342
406.762972	0.759309
407.144240	0.749351
407.525447	0.741233
407.906593	0.728792
408.287677	0.717257
408.668700	0.714147
409.049661	0.700641
409.430560	0.690345
409.811399	0.687454
410.192176	0.666661
410.572891	0.663853
410.953545	0.647595
411.334138	0.650061
411.714669	0.637358
412.095139	0.639815
412.475547	0.621065
412.855894	0.616097
413.236180	0.608505
413.616405	0.606961
413.996568	0.593228
414.376670	0.593285
414.756711	0.592300
415.136691	0.584441
415.516609	0.572332
415.896466	0.564522
416.276262	0.556948
416.655997	0.554710
417.035670	0.534486
417.415283	0.523906
417.794834	0.524287
418.174324	0.525639
418.553753	0.532032
418.933121	0.512298
419.312428	0.503120
419.691674	0.506375
420.070859	0.493494
420.449983	0.499183
420.829045	0.486951
421.208047	0.494273
421.586988	0.486622
421.965867	0.483649
422.344686	0.471699
422.723444	0.482922
423.102141	0.498441
423.480777	0.471097
423.859352	0.490294
424.237866	0.467031
424.616319	0.467703
424.994712	0.458744
425.373044	0.468427
425.751314	0.455365
426.129524	0.471599
426.507673	0.455771
426.885762	0.448715
427.263789	0.453792
427.641756	0.463717
428.019662	0.453729
428.397508	0.452508
428.775292	0.456540
429.153016	0.448359
429.530679	0.454898
429.908282	0.448041
430.285824	0.457952
430.663305	0.435910
431.040726	0.456776
431.418086	0.457776
431.795385	0.448738
432.172624	0.446820
432.549802	0.448111
432.926920	0.447161
433.303977	0.446573
433.680974	0.443594
434.057910	0.441840
434.434786	0.441950
434.811601	0.443736
435.188355	0.426216
435.565050	0.435607
435.941683	0.437183
436.318257	0.421662
436.694770	0.421995
437.071222	0.419841
437.447614	0.424575
437.823946	0.430934
438.200218	0.419956
438.576429	0.430155
438.952580	0.423314
439.328670	0.419429
439.704700	0.426390
440.080670	0.427797
440.456580	0.408044
440.832429	0.416017
441.208218	0.426935
441.583947	0.416671
441.959616	0.416055
442.335224	0.421136
442.710773	0.412077
443.086261	0.410517
443.461689	0.423788
443.837057	0.414034
444.212365	0.403664
444.587612	0.410760
444.962800	0.400713
445.337927	0.402242
445.712995	0.428295
446.088002	0.391265
446.462949	0.401133
446.837837	0.405390
447.212664	0.395047
447.587431	0.386378
447.962139	0.356776
448.336786	0.316102
448.711374	0.326304
449.085901	0.370188
449.460369	0.375143
449.834776	0.378303
450.209124	0.357631
450.583412	0.350400
450.957640	0.343053
451.331808	0.354319
451.705917	0.377632
452.079965	0.382658
452.453954	0.370786
452.827883	0.377523
453.201752	0.372385
453.575562	0.383698
453.949311	0.372502
454.323001	0.378006
454.696632	0.374136
455.070202	0.366899
455.443713	0.358523
455.817164	0.353538
456.190556	0.349394
456.563888	0.346052
456.937160	0.343862
457.310373	0.361185
457.683526	0.359502
458.056619	0.365607
458.429653	0.366053
458.802628	0.369197
459.175542	0.363859
459.548398	0.346501
459.921194	0.339019
460.293930	0.338986
460.666607	0.316522
461.039224	0.304693
461.411782	0.300408
461.784280	0.300082
462.156719	0.304220
462.529099	0.308418
462.901419	0.324362
463.273680	0.328576
463.645882	0.328377
464.018024	0.334243
464.390106	0.326886
464.762130	0.312108
465.134094	0.294916
465.505999	0.264468
465.877845	0.234719
466.249631	0.221696
466.621358	0.229212
466.993026	0.242922
467.364634	0.249321
467.736184	0.258183
468.107674	0.266835
468.479105	0.265785
468.850477	0.273019
469.221790	0.279549
469.593043	0.289697
469.964238	0.294430
470.335373	0.293732
470.706449	0.291963
471.077467	0.292864
471.448425	0.254929
471.819324	0.230444
472.190164	0.230028
472.560945	0.258767
472.931667	0.280714
473.302330	0.285314
473.672934	0.296929
474.043479	0.284977
474.413965	0.286678
474.784393	0.290431
475.154761	0.285370
475.525070	0.282231
475.895321	0.288168
476.265513	0.282578
476.635645	0.277752
477.005719	0.277658
477.375734	0.274312
477.745691	0.267565
478.115588	0.264022
478.485427	0.257502
478.855207	0.244442
479.224928	0.227360
479.594591	0.215011
479.964194	0.218780
480.333739	0.219811
480.703226	0.221110
481.072653	0.219827
481.442022	0.215378
481.811333	0.211803
482.180584	0.215412
482.549777	0.220597
482.918912	0.223952
483.287988	0.223587
483.657005	0.223093
484.025964	0.229986
484.394864	0.227156
484.763706	0.227719
485.132489	0.232731
485.501213	0.233289
485.869879	0.231646
486.238487	0.234770
486.607036	0.232778
486.975527	0.237266
487.343959	0.233356
487.712333	0.232342
488.080648	0.233731
488.448905	0.232846
488.817104	0.234133
489.185244	0.228719
489.553326	0.225798
489.921350	0.215428
490.289315	0.198124
490.657222	0.193154
491.025070	0.194300
491.392861	0.196591
491.760593	0.202080
492.128267	0.207669
492.495883	0.213135
492.863440	0.219576
493.230939	0.225620
493.598380	0.226850
493.965763	0.229139
494.333088	0.231298
494.700354	0.232875
495.067563	0.232029
495.434713	0.235479
495.801805	0.233176
496.168839	0.234751
496.535815	0.235807
496.902733	0.235975
497.269593	0.237490
497.636395	0.235289
498.003139	0.235811
498.369825	0.238721
498.736453	0.235177
499.103023	0.236396
499.469535	0.235957
499.835989	0.236270
500.202385	0.237165
500.568723	0.240322
500.935003	0.235623
501.301226	0.239662
501.667390	0.234038
502.033497	0.232053
502.399546	0.235316
502.765537	0.237046
503.131470	0.235407
503.497345	0.231521
503.863163	0.240373
504.228923	0.233261
504.594625	0.232094
504.960269	0.237556
505.325856	0.232763
505.691385	0.236743
506.056856	0.233811
506.422270	0.233225
506.787625	0.235799
507.152924	0.233044
507.518164	0.233453
507.883347	0.235131
508.248472	0.236556
508.613540	0.231983
508.978550	0.234686
509.343503	0.234896
509.708398	0.232413
510.073236	0.230208
510.438016	0.230263
510.802738	0.231162
511.167403	0.230226
511.532010	0.232113
511.896561	0.227403
512.261053	0.226576
512.625488	0.228517
512.989866	0.228669
513.354186	0.229154
513.718449	0.230649
514.082655	0.227444
514.446803	0.229627
514.810894	0.227174
515.174927	0.229822
515.538904	0.229327
515.902822	0.225938
516.266684	0.228304
516.630488	0.229461
516.994235	0.228324
517.357925	0.227368
517.721558	0.225541
518.085133	0.224770
518.448651	0.225286
518.812112	0.227150
519.175516	0.226939
519.538863	0.224845
519.902152	0.226138
520.265385	0.223057
520.628560	0.224957
520.991678	0.225362
521.354739	0.223932
521.717743	0.225164
522.080690	0.225926
522.443580	0.223246
522.806413	0.223904
523.169189	0.223244
523.531908	0.222265
523.894569	0.225776
524.257174	0.225704
524.619722	0.223591
524.982213	0.224673
525.344647	0.223422
525.707025	0.224436
526.069345	0.222409
526.431608	0.223966
526.793815	0.222105
527.155964	0.226304
527.518057	0.225022
527.880093	0.226222
528.242072	0.224691
528.603995	0.226752
528.965860	0.228164
529.327669	0.227353
529.689421	0.227991
530.051117	0.228689
530.412755	0.226846
530.774337	0.228883
531.135862	0.229259
531.497331	0.228553
531.858743	0.231510
532.220098	0.228558
532.581396	0.230821
532.942638	0.231029
533.303824	0.231987
533.664953	0.231948
534.026025	0.233422
534.387040	0.231634
534.747999	0.231811
535.108902	0.230637
535.469748	0.235401
535.830537	0.233452
536.191270	0.233530
536.551947	0.233018
536.912567	0.233211
537.273131	0.235004
537.633638	0.235202
537.994089	0.235538
538.354483	0.236621
538.714821	0.233287
539.075103	0.233445
539.435328	0.234280
539.795497	0.237692
540.155609	0.234572
540.515665	0.232501
540.875665	0.238073
541.235609	0.236605
541.595496	0.236918
541.955328	0.233308
542.315102	0.236028
542.674821	0.237051
543.034483	0.237054
543.394090	0.236626
543.753640	0.238733
544.113134	0.233775
544.472571	0.236783
544.831953	0.234035
545.191278	0.237995
545.550548	0.237516
545.909761	0.234249
546.268918	0.234702
546.628019	0.233154
546.987064	0.236057
547.346053	0.237735
547.704986	0.235559
548.063863	0.235987
548.422684	0.235990
548.781449	0.238208
549.140158	0.235642
549.498811	0.238407
549.857408	0.241311
550.215949	0.236508
550.574434	0.239269
550.932864	0.237187
551.291237	0.236043
551.649555	0.237512
552.007817	0.237141
552.366022	0.238035
552.724173	0.238203
553.082267	0.238491
553.440305	0.235444
553.798288	0.239910
554.156215	0.236193
554.514086	0.236826
554.871902	0.240281
555.229661	0.239602
555.587365	0.240128
555.945014	0.242751
556.302606	0.239513
556.660143	0.241613
557.017625	0.238555
557.375050	0.240766
557.732421	0.238080
558.089735	0.239794
558.446994	0.239749
558.804197	0.238885
559.161345	0.238788
559.518437	0.242365
559.875474	0.239849
560.232455	0.239617
560.589381	0.240769
560.946251	0.240909
561.303065	0.238524
561.659825	0.240229
562.016528	0.241599
562.373177	0.244204
562.729770	0.241411
563.086307	0.243470
563.442789	0.241243
563.799216	0.244333
564.155587	0.242874
564.511904	0.244237
564.868164	0.244242
565.224370	0.244033
565.580520	0.245852
565.936615	0.245562
566.292654	0.248524
566.648638	0.245498
567.004567	0.246243
567.360441	0.247039
567.716260	0.248994
568.072023	0.246912
568.427732	0.247470
568.783385	0.250205
569.138982	0.248253
569.494525	0.247783
569.850013	0.250525
570.205445	0.248864
570.560823	0.251448
570.916145	0.253629
571.271412	0.252292
571.626625	0.253491
571.981782	0.253722
572.336884	0.254531
572.691931	0.254680
573.046923	0.255586
573.401860	0.256937
573.756743	0.258482
574.111570	0.257330
574.466342	0.257991
574.821059	0.257135
575.175722	0.260049
575.530330	0.259834
575.884882	0.259789
576.239380	0.261619
576.593823	0.262628
576.948211	0.261948
577.302544	0.265309
577.656823	0.264737
578.011047	0.264717
578.365216	0.265656
578.719330	0.267562
579.073389	0.267554
579.427394	0.268548
579.781344	0.269255
580.135239	0.270809
580.489080	0.270571
580.842866	0.273472
581.196597	0.273382
581.550273	0.272130
581.903895	0.272966
582.257463	0.270940
582.610975	0.274704
582.964434	0.273830
583.317837	0.276231
583.671186	0.276726
584.024481	0.276853
584.377721	0.279007
584.730906	0.280176
585.084037	0.279071
585.437113	0.281158
585.790135	0.280279
586.143103	0.283342
586.496016	0.284398
586.848874	0.281929
587.201679	0.282689
587.554428	0.285938
587.907124	0.284881
588.259765	0.285150
588.612352	0.285784
588.964884	0.289859
589.317362	0.289497
589.669786	0.289298
590.022155	0.287861
590.374470	0.286880
590.726731	0.289123
591.078937	0.294027
591.431090	0.290148
591.783188	0.294515
592.135232	0.294563
592.487222	0.294524
592.839157	0.293057
593.191038	0.295301
593.542866	0.297068
593.894639	0.301133
594.246358	0.298802
594.598022	0.298473
594.949633	0.301703
595.301190	0.302895
595.652692	0.301910
596.004141	0.297926
596.355535	0.306221
596.706876	0.306582
597.058162	0.309189
597.409395	0.306149
597.760573	0.303858
598.111698	0.307130
598.462768	0.307795
598.813785	0.308871
599.164748	0.310345
599.515657	0.310350
599.866511	0.314049
600.217312	0.308935
600.568060	0.314465
600.918753	0.310765
601.269392	0.311627
601.619978	0.314807
601.970510	0.312701
602.320988	0.313011
602.671412	0.310321
603.021783	0.313054
603.372100	0.313996
603.722363	0.313980
604.072572	0.315027
604.422728	0.314613
604.772830	0.316846
605.122878	0.316113
605.472872	0.316554
605.822813	0.315137
606.172701	0.317736
606.522534	0.315670
606.872314	0.315159
607.222041	0.316547
607.571714	0.314621
607.921333	0.315332
608.270899	0.315312
608.620411	0.312110
608.969870	0.316434
609.319276	0.316327
609.668627	0.316252
610.017926	0.314791
610.367171	0.313438
610.716362	0.313923
611.065500	0.314197
611.414585	0.312708
611.763616	0.313042
612.112594	0.313778
612.461518	0.313169
612.810389	0.311012
613.159207	0.313470
613.507971	0.314819
613.856682	0.310918
614.205340	0.312154
614.553945	0.309368
614.902496	0.313114
615.250994	0.310977
615.599439	0.311944
615.947830	0.311353
616.296169	0.312357
616.644454	0.311635
616.992686	0.311949
617.340864	0.309885
617.688990	0.313215
618.037063	0.310021
618.385082	0.312134
618.733048	0.308608
619.080961	0.310905
619.428821	0.310348
619.776628	0.310167
620.124382	0.311721
620.472083	0.312227
620.819731	0.311535
621.167326	0.315318
621.514868	0.315305
621.862357	0.319388
622.209793	0.319227
622.557176	0.321245
622.904506	0.322611
623.251783	0.324851
623.599007	0.326748
623.946179	0.326815
624.293297	0.328571
624.640363	0.332748
624.987376	0.332934
625.334336	0.335472
625.681243	0.337415
626.028097	0.338374
626.374899	0.339477
626.721647	0.339367
627.068343	0.343337
627.414987	0.343809
627.761577	0.346037
628.108115	0.344098
628.454600	0.348955
628.801032	0.346915
629.147412	0.348586
629.493739	0.349240
629.840014	0.352342
630.186236	0.349678
630.532405	0.355040
630.878521	0.352824
631.224585	0.354900
631.570597	0.358733
631.916556	0.356999
632.262462	0.357170
632.608316	0.359433
632.954117	0.359679
633.299866	0.361025
633.645562	0.360996
633.991206	0.365893
634.336797	0.368353
634.682336	0.371052
635.027823	0.372658
635.373257	0.373187
635.718639	0.376757
636.063968	0.376060
636.409245	0.381685
636.754470	0.382219
637.099642	0.384341
637.444762	0.388050
637.789829	0.386998
638.134845	0.390100
638.479808	0.391580
638.824719	0.391218
639.169577	0.394996
639.514383	0.394404
639.859137	0.398193
640.203839	0.398308
640.548489	0.398594
640.893086	0.399639
641.237632	0.401587
641.582125	0.400427
641.926566	0.401446
642.270955	0.401818
642.615292	0.401861
642.959576	0.401648
643.303809	0.401883
643.647990	0.401307
643.992118	0.402185
644.336195	0.405674
644.680219	0.403421
645.024192	0.404739
645.368112	0.398306
645.711981	0.397171
646.055797	0.392746
646.399562	0.394904
646.743274	0.387239
647.086935	0.384318
647.430544	0.384247
647.774101	0.383247
648.117606	0.383154
648.461059	0.383489
648.804460	0.385495
649.147810	0.390987
649.491108	0.392975
649.834354	0.394168
650.177548	0.399673
650.520690	0.405133
650.863781	0.405984
651.206820	0.405802
651.549807	0.410234
651.892742	0.414174
652.235626	0.413913
652.578458	0.414793
652.921238	0.421144
653.263967	0.418384
653.606644	0.422306
653.949269	0.422432
654.291843	0.426188
654.634365	0.422810
654.976836	0.425688
655.319255	0.425983
655.661622	0.428094
656.003938	0.427817
656.346203	0.431004
656.688416	0.428862
657.030577	0.432185
657.372687	0.433795
657.714746	0.435181
658.056753	0.431633
658.398708	0.435991
658.740612	0.436546
659.082465	0.432522
659.424266	0.433733
659.766016	0.432653
660.107715	0.436145
660.449362	0.434495
660.790958	0.435147
661.132503	0.435701
661.473996	0.433412
661.815438	0.434180
662.156829	0.434724
662.498168	0.435314
662.839456	0.436836
663.180693	0.434285
663.521879	0.434339
663.863013	0.435099
664.204097	0.434053
664.545129	0.431119
664.886110	0.431596
665.227040	0.428213
665.567918	0.431053
665.908746	0.428888
666.249522	0.429100
666.590248	0.430050
666.930922	0.428094
667.271545	0.426684
667.612118	0.426863
667.952639	0.428461
668.293109	0.426667
668.633528	0.430197
668.973896	0.429467
669.314213	0.430191
669.654480	0.431275
669.994695	0.431928
670.334859	0.432918
670.674973	0.433171
671.015035	0.433041
671.355047	0.433411
671.695008	0.434100
672.034918	0.436221
672.374777	0.435250
672.714585	0.436642
673.054342	0.436410
673.394049	0.436622
673.733705	0.434317
674.073310	0.435779
674.412864	0.438543
674.752368	0.438761
675.091820	0.439086
675.431223	0.443611
675.770574	0.443371
676.109875	0.447029
676.449125	0.446640
676.788324	0.448881
677.127473	0.454411
677.466571	0.454901
677.805619	0.455850
678.144616	0.456729
678.483562	0.458192
678.822458	0.460978
679.161303	0.461902
679.500098	0.461796
679.838842	0.464246
680.177535	0.463553
680.516179	0.462010
680.854771	0.460973
681.193314	0.454709
681.531805	0.445632
681.870247	0.434400
682.208638	0.426841
682.546978	0.425654
682.885268	0.427528
683.223508	0.434201
683.561697	0.437643
683.899836	0.440218
684.237925	0.443538
684.575963	0.446149
684.913951	0.449310
685.251889	0.444680
685.589776	0.447452
685.927614	0.449565
686.265401	0.443729
686.603137	0.444873
686.940824	0.439307
687.278460	0.437297
687.616046	0.436361
687.953582	0.431571
688.291068	0.432992
688.628504	0.428423
688.965889	0.430943
689.303224	0.435031
689.640510	0.439281
689.977745	0.444704
690.314930	0.452800
690.652065	0.457052
690.989150	0.465032
691.326185	0.470982
691.663170	0.475785
692.000105	0.482592
692.336990	0.490055
692.673825	0.492465
693.010610	0.499179
693.347345	0.504868
693.684030	0.506537
694.020665	0.511213
694.357251	0.519662
694.693786	0.519655
695.030272	0.523914
695.366707	0.526878
695.703093	0.531032
696.039429	0.528292
696.375716	0.529779
696.711952	0.533213
697.048139	0.534832
697.384276	0.536790
697.720363	0.534801
698.056400	0.534067
698.392388	0.539517
698.728326	0.542581
699.064214	0.545431
699.400053	0.546111
699.735842	0.549898
700.071581	0.552660
700.407270	0.555977
700.742910	0.557660
701.078501	0.564705
701.414042	0.564591
701.749533	0.568517
702.084974	0.576763
702.420366	0.568725
702.755709	0.576305
703.091002	0.584670
703.426246	0.577596
703.761440	0.583779
704.096584	0.588720
704.431679	0.585649
704.766725	0.588071
705.101721	0.589621
705.436668	0.585914
705.771565	0.592490
706.106413	0.589438
706.441212	0.584381
706.775961	0.583375
707.110661	0.586622
707.445311	0.582285
707.779913	0.579691
708.114465	0.577632
708.448967	0.574856
708.783421	0.566858
709.117825	0.561555
709.452180	0.561575
709.786485	0.555255
710.120742	0.544493
710.454949	0.547296
710.789107	0.539171
711.123216	0.530314
711.457275	0.531759
711.791286	0.522844
712.125247	0.521275
712.459159	0.531989
712.793023	0.525143
713.126837	0.529303
713.460602	0.529241
713.794318	0.539145
714.127985	0.537758
714.461602	0.547950
714.795171	0.551211
715.128691	0.558369
715.462162	0.566722
715.795584	0.571448
716.128957	0.574945
716.462281	0.581318
716.795556	0.584731
717.128782	0.590235
717.461960	0.599750
717.795088	0.597762
718.128167	0.604506
718.461198	0.613229
718.794180	0.614104
719.127113	0.616278
719.459997	0.620060
719.792833	0.626468
720.125619	0.627237
720.458357	0.633550
720.791046	0.633212
721.123686	0.636815
721.456278	0.642615
721.788821	0.640918
722.121315	0.644447
722.453761	0.649192
722.786158	0.646829
723.118506	0.644004
723.450805	0.651148
723.783056	0.647101
724.115259	0.643978
724.447412	0.643784
724.779518	0.645482
725.111574	0.644834
725.443582	0.640097
725.775542	0.641898
726.107453	0.633687
726.439315	0.633223
726.771129	0.632193
727.102895	0.625795
727.434612	0.617949
727.766281	0.617265
728.097901	0.616033
728.429473	0.614990
728.760996	0.613795
729.092471	0.613927
729.423897	0.617964
729.755276	0.616738
730.086606	0.617600
730.417887	0.611353
730.749120	0.602076
731.080305	0.592811
731.411442	0.589507
731.742530	0.594257
732.073570	0.593529
732.404562	0.585584
732.735506	0.587146
733.066401	0.591272
733.397249	0.600686
733.728048	0.612475
734.058798	0.625109
734.389501	0.636086
734.720156	0.644949
735.050762	0.652518
735.381320	0.654458
735.711831	0.663208
736.042293	0.668273
736.372707	0.664747
736.703073	0.668436
737.033391	0.671332
737.363661	0.667894
737.693883	0.662483
738.024056	0.661966
738.354182	0.662491
738.684260	0.651432
739.014290	0.648036
739.344272	0.648561
739.674207	0.642391
740.004093	0.641064
740.333931	0.641849
740.663722	0.641806
740.993464	0.642690
741.323159	0.646583
741.652806	0.651805
741.982405	0.656477
742.311956	0.660353
742.641460	0.662794
742.970915	0.666415
743.300323	0.673678
743.629683	0.680891
743.958996	0.682294
744.288260	0.687055
744.617477	0.692304
744.946647	0.694703
745.275768	0.699495
745.604842	0.700114
745.933869	0.709561
746.262847	0.710611
746.591778	0.703644
746.920662	0.709439
747.249498	0.715875
747.578286	0.706425
747.907027	0.703496
748.235720	0.703926
748.564365	0.699159
748.892963	0.699435
749.221514	0.701961
749.550017	0.707179
749.878473	0.707484
750.206881	0.712479
750.535242	0.714662
750.863555	0.714093
751.191821	0.715151
751.520039	0.718463
751.848210	0.723838
752.176334	0.715399
752.504411	0.715133
752.832440	0.723460
753.160421	0.726479
753.488356	0.725107
753.816243	0.722772
754.144082	0.730359
754.471875	0.735008
754.799620	0.730417
755.127318	0.731857
755.454969	0.731252
755.782572	0.729959
756.110129	0.735874
756.437638	0.738428
756.765100	0.734593
757.092515	0.733097
757.419882	0.731783
757.747203	0.736168
758.074477	0.736226
758.401703	0.733847
758.728882	0.728846
759.056014	0.727671
759.383099	0.726999
759.710138	0.727778
760.037129	0.724031
760.364073	0.718319
760.690970	0.720029
761.017820	0.726554
761.344623	0.721656
761.671379	0.713349
761.998088	0.700950
762.324751	0.678676
762.651366	0.636715
762.977935	0.569330
763.304456	0.517230
763.630931	0.507652
763.957359	0.546186
764.283740	0.591303
764.610074	0.618737
764.936362	0.650256
765.262602	0.676014
765.588796	0.697641
765.914943	0.715614
766.241044	0.734128
766.567097	0.740127
766.893104	0.750126
767.219064	0.756110
767.544978	0.762724
767.870845	0.776542
768.196665	0.780218
768.522438	0.778696
768.848165	0.779469
769.173846	0.788934
769.499479	0.792583
769.825066	0.796045
770.150607	0.801534
770.476101	0.797242
770.801548	0.798258
771.126949	0.809889
771.452303	0.813572
771.777611	0.812874
772.102872	0.812294
772.428087	0.817121
772.753256	0.820038
773.078378	0.822035
773.403453	0.830414
773.728482	0.835509
774.053465	0.828856
774.378401	0.831628
774.703291	0.840624
775.028135	0.840718
775.352932	0.842384
775.677683	0.844610
776.002388	0.846109
776.327046	0.845029
776.651658	0.848561
776.976224	0.851673
777.300743	0.852664
777.625216	0.854617
777.949643	0.855202
778.274024	0.856594
778.598359	0.857270
778.922647	0.857659
779.246889	0.856239
779.571086	0.861529
779.895236	0.863597
780.219339	0.859733
780.543397	0.857797
780.867409	0.855518
781.191374	0.858146
781.515294	0.859400
781.839167	0.857979
782.162995	0.861130
782.486776	0.859544
782.810511	0.859730
783.134201	0.863390
783.457844	0.860062
783.781441	0.864270
784.104993	0.869548
784.428498	0.869419
784.751958	0.865057
785.075372	0.866478
785.398739	0.871446
785.722061	0.867940
786.045337	0.863961
786.368568	0.868445
786.691752	0.871235
787.014891	0.855740
787.337983	0.847299
787.661030	0.839116
787.984031	0.823335
788.306987	0.809140
788.629897	0.811621
788.952760	0.815385
789.275579	0.819649
789.598351	0.834945
789.921078	0.848134
790.243759	0.850370
790.566395	0.855449
790.888984	0.862838
791.211529	0.867179
791.534027	0.871849
791.856480	0.872489
792.178888	0.878866
792.501249	0.879854
792.823566	0.881917
793.145836	0.882045
793.468062	0.884307
793.790241	0.884195
794.112375	0.882518
794.434464	0.877672
794.756507	0.876640
795.078505	0.876838
795.400457	0.870691
795.722364	0.859424
796.044226	0.851893
796.366042	0.851223
796.687812	0.854779
797.009538	0.850873
797.331218	0.853920
797.652852	0.857607
797.974442	0.863028
798.295986	0.863149
798.617484	0.865885
798.938938	0.869961
799.260346	0.875433
799.581709	0.876655
799.903026	0.879860
800.224299	0.880174
800.545526	0.883641
800.866708	0.887893
801.187845	0.891789
801.508936	0.890607
801.829983	0.888861
802.150984	0.892924
802.471940	0.896128
802.792851	0.895476
803.113717	0.898004
803.434538	0.895246
803.755314	0.897509
804.076045	0.899524
804.396731	0.898934
804.717372	0.899634
805.037967	0.900884
805.358518	0.898710
805.679024	0.895617
805.999485	0.895390
806.319901	0.895877
806.640272	0.897794
806.960598	0.896058
807.280879	0.892601
807.601115	0.891410
807.921306	0.894397
808.241453	0.895453
808.561554	0.892330
808.881611	0.893256
809.201623	0.895553
809.521590	0.895673
809.841513	0.896663
810.161390	0.894957
810.481223	0.897114
810.801011	0.900225
811.120755	0.902311
811.440453	0.900566
811.760107	0.899077
812.079716	0.899265
812.399281	0.903253
812.718801	0.905499
813.038276	0.906390
813.357707	0.906386
813.677093	0.903202
813.996434	0.905135
814.315731	0.907824
814.634983	0.907789
814.954191	0.905902
815.273354	0.904758
815.592473	0.900999
815.911547	0.901117
816.230577	0.897620
816.549562	0.893971
816.868502	0.896201
817.187399	0.892203
817.506250	0.887068
817.825058	0.889203
818.143821	0.885544
818.462539	0.881088
818.781213	0.872279
819.099843	0.860748
819.418429	0.845427
819.736970	0.827562
820.055466	0.808358
820.373919	0.782275
820.692327	0.749518
821.010691	0.714637
821.329011	0.636838
821.647286	0.520917
821.965517	0.406774
822.283704	0.363898
822.601847	0.365124
822.919945	0.400339
823.237999	0.434265
823.556010	0.481918
823.873976	0.537650
824.191897	0.588099
824.509775	0.630796
824.827609	0.677439
825.145398	0.699880
825.463144	0.702416
825.780845	0.685434
826.098502	0.667020
826.416116	0.620528
826.733685	0.576478
827.051210	0.567314
827.368692	0.582737
827.686129	0.620709
828.003522	0.673569
828.320872	0.720365
828.638177	0.765467
828.955439	0.798127
829.272656	0.819576
829.589830	0.837774
829.906960	0.853368
830.224046	0.865489
830.541088	0.876609
830.858086	0.880407
831.175041	0.886443
831.491952	0.885588
831.808819	0.881584
832.125642	0.875800
832.442421	0.861230
832.759157	0.838796
833.075849	0.792242
833.392497	0.728343
833.709101	0.687029
834.025662	0.696787
834.342179	0.728914
834.658653	0.767868
834.975083	0.804664
835.291469	0.830737
835.607811	0.853307
835.924110	0.869092
836.240366	0.886106
836.556578	0.899519
836.872746	0.907433
837.188871	0.913694
837.504952	0.918555
837.820990	0.923068
838.136984	0.926115
838.452935	0.929417
838.768842	0.931220
839.084706	0.923194
839.400526	0.898399
839.716303	0.857250
840.032037	0.835042
840.347727	0.838436
840.663373	0.856737
840.978977	0.878773
841.294537	0.901371
841.610054	0.916789
841.925527	0.925264
842.240957	0.930679
842.556344	0.940132
842.871687	0.945089
843.186987	0.948587
843.502244	0.950440
843.817458	0.951144
844.132629	0.954554
844.447756	0.958632
844.762840	0.960418
845.077881	0.959151
845.392879	0.959488
845.707833	0.961544
846.022745	0.963364
846.337613	0.964245
846.652438	0.965955
846.967221	0.963862
847.281960	0.965611
847.596656	0.967285
847.911309	0.965994
848.225919	0.966506
848.540485	0.967332
848.855009	0.968305
849.169490	0.967854
849.483928	0.968673
849.798323	0.968637
850.112675	0.969844
850.426984	0.969717
850.741251	0.970008
851.055474	0.969553
851.369654	0.967630
851.683792	0.968609
851.997887	0.968832
852.311938	0.970935
852.625947	0.969542
852.939914	0.967813
853.253837	0.968787
853.567718	0.969951
853.881555	0.970419
854.195350	0.966947
854.509103	0.969610
854.822812	0.969632
855.136479	0.969851
855.450103	0.970057
855.763685	0.968413
856.077224	0.968317
856.390720	0.969954
856.704173	0.969051
857.017584	0.967584
857.330953	0.966361
857.644278	0.967399
857.957561	0.968164
858.270802	0.967514
858.584000	0.967402
858.897155	0.966008
859.210268	0.966879
859.523339	0.967613
859.836367	0.969142
860.149352	0.969822
860.462295	0.967737
860.775195	0.970285
861.088054	0.968807
861.400869	0.969261
861.713642	0.970090
862.026373	0.969482
862.339062	0.969967
862.651708	0.968013
862.964312	0.967159
863.276873	0.968590
863.589392	0.968171
863.901869	0.965602
864.214303	0.964419
864.526696	0.963548
864.839045	0.963735
865.151353	0.960878
865.463619	0.962375
865.775842	0.961607
866.088023	0.961463
866.400162	0.962344
866.712258	0.961817
867.024313	0.961953
867.336325	0.963288
867.648296	0.963094
867.960224	0.961395
868.272110	0.960536
868.583954	0.963614
868.895755	0.963350
869.207515	0.960265
869.519233	0.958664
869.830909	0.959941
870.142542	0.962787
870.454134	0.961046
870.765684	0.960733
871.077191	0.957447
871.388657	0.958359
871.700081	0.956641
872.011463	0.957535
872.322803	0.957688
872.634101	0.956473
872.945357	0.954748
873.256571	0.952448
873.567744	0.951956
873.878874	0.953414
874.189963	0.951041
874.501010	0.949266
874.812015	0.948882
875.122979	0.950806
875.433900	0.953091
875.744780	0.952871
876.055618	0.949867
876.366415	0.949171
876.677169	0.948855
876.987882	0.950178
877.298554	0.949862
877.609183	0.946207
877.919771	0.944634
878.230317	0.941813
878.540822	0.940569
878.851285	0.934232
879.161707	0.924527
879.472087	0.913254
879.782425	0.897508
880.092722	0.862859
880.402977	0.810111
880.713191	0.748929
881.023363	0.689742
881.333494	0.655291
881.643583	0.627583
881.953631	0.627290
882.263637	0.656193
882.573602	0.695545
882.883526	0.721433
883.193408	0.744918
883.503248	0.768656
883.813048	0.796581
884.122806	0.824839
884.432522	0.849164
884.742197	0.868649
885.051831	0.879530
885.361424	0.890321
885.670975	0.902810
885.980485	0.913072
886.289954	0.917650
886.599382	0.924723
886.908768	0.926549
887.218113	0.933821
887.527417	0.938611
887.836680	0.942008
888.145901	0.942874
888.455082	0.945354
888.764221	0.948823
889.073319	0.952752
889.382376	0.951894
889.691392	0.952686
890.000366	0.952405
890.309300	0.953174
890.618193	0.952362
890.927044	0.950831
891.235855	0.950799
891.544625	0.950401
891.853353	0.950361
892.162041	0.948307
892.470687	0.942303
892.779293	0.937081
893.087858	0.933820
893.396381	0.925044
893.704864	0.912371
894.013306	0.888949
894.321707	0.860696
894.630068	0.846443
894.938387	0.841666
895.246665	0.842259
895.554903	0.855145
895.863100	0.869572
896.171256	0.885725
896.479371	0.905359
896.787446	0.917074
897.095480	0.923651
897.403473	0.927330
897.711425	0.931547
898.019336	0.938801
898.327207	0.941456
898.635038	0.943340
898.942827	0.944291
899.250576	0.946725
899.558284	0.951330
899.865952	0.953871
900.173579	0.954944
900.481165	0.956072
900.788711	0.958865
901.096216	0.959915
901.403681	0.960692
901.711105	0.962443
902.018489	0.962728
902.325832	0.961213
902.633135	0.960493
902.940397	0.955087
903.247619	0.942857
903.554800	0.916709
903.861941	0.876463
904.169041	0.841275
904.476101	0.823658
904.783121	0.823554
905.090100	0.840880
905.397039	0.861641
905.703938	0.884575
906.010796	0.904810
906.317614	0.921970
906.624391	0.934496
906.931129	0.942085
907.237826	0.951678
907.544483	0.958171
907.851099	0.962001
908.157675	0.967514
908.464211	0.968564
908.770707	0.972395
909.077163	0.973514
909.383578	0.973618
909.689954	0.975094
909.996289	0.974598
910.302584	0.977120
910.608839	0.979755
910.915054	0.977612
911.221229	0.978037
911.527363	0.975871
911.833458	0.976932
912.139513	0.976219
912.445527	0.974124
912.751502	0.973217
913.057436	0.971786
913.363331	0.968727
913.669186	0.965603
913.975000	0.960664
914.280775	0.954893
914.586510	0.947300
914.892205	0.934796
915.197859	0.912390
915.503475	0.885435
915.809050	0.864276
916.114585	0.858545
916.420081	0.856437
916.725536	0.853188
917.030952	0.861865
917.336328	0.874264
917.641665	0.890329
917.946961	0.905963
918.252218	0.916963
918.557435	0.926370
918.862612	0.934044
919.167750	0.941520
919.472848	0.945686
919.777906	0.951842
920.082925	0.956194
920.387904	0.960548
920.692843	0.961850
920.997743	0.963428
921.302603	0.967506
921.607423	0.967583
921.912204	0.971303
922.216946	0.970734
922.521647	0.972943
922.826310	0.974151
923.130932	0.976828
923.435516	0.977369
923.740059	0.979424
924.044564	0.978719
924.349028	0.980321
924.653454	0.983119
924.957840	0.983611
925.262186	0.984230
925.566493	0.983428
925.870761	0.985310
926.174989	0.986367
926.479178	0.988380
926.783328	0.988123
927.087438	0.987891
927.391509	0.987669
927.695541	0.989481
927.999533	0.989674
928.303486	0.989888
928.607400	0.990978
928.911275	0.988568
929.215110	0.989232
929.518906	0.990527
929.822663	0.988765
930.126381	0.990951
930.430060	0.989662
930.733699	0.989727
931.037299	0.988278
931.340861	0.989510
931.644383	0.989474
931.947866	0.988917
932.251309	0.990117
932.554714	0.989342
932.858080	0.989368
933.161407	0.989779
933.464694	0.990731
933.767943	0.989477
934.071153	0.991232
934.374323	0.991024
934.677455	0.990976
934.980548	0.991888
935.283602	0.991183
935.586617	0.991312
935.889593	0.990618
936.192530	0.990616
936.495428	0.990894
936.798287	0.989862
937.101108	0.989431
937.403890	0.989443
937.706632	0.988499
938.009336	0.986045
938.312002	0.985189
938.614628	0.983940
938.917216	0.982914
939.219765	0.981066
939.522275	0.982800
939.824747	0.981831
940.127179	0.982598
940.429573	0.984826
940.731929	0.983898
941.034246	0.984091
941.336524	0.985340
941.638763	0.985956
941.940964	0.985661
942.243126	0.985662
942.545250	0.986834
942.847335	0.987447
943.149381	0.987793
943.451389	0.988241
943.753359	0.987359
944.055290	0.991117
944.357182	0.988665
944.659036	0.987645
944.960851	0.989224
945.262628	0.989636
945.564367	0.989657
945.866067	0.988800
946.167729	0.990385
946.469352	0.989260
946.770937	0.988562
947.072484	0.991590
947.373992	0.990090
947.675462	0.989823
947.976893	0.989547
948.278286	0.990111
948.579641	0.991630
948.880958	0.988889
949.182236	0.990643
949.483476	0.991417
949.784678	0.990609
950.085841	0.990634
950.386967	0.990196
950.688054	0.989331
950.989103	0.989476
951.290114	0.989263
951.591087	0.989069
951.892021	0.988881
952.192917	0.988648
952.493776	0.988364
952.794596	0.986458
953.095378	0.987433
953.396122	0.987960
953.696828	0.987878
953.997496	0.989564
954.298126	0.989539
954.598718	0.990193
954.899272	0.989852
955.199788	0.990282
955.500266	0.991882
955.800706	0.993148
956.101108	0.993520
956.401472	0.994245
956.701798	0.993997
957.002087	0.992745
957.302337	0.993240
957.602550	0.994672
957.902724	0.994329
958.202861	0.994940
958.502960	0.994759
958.803022	0.993970
959.103045	0.995318
959.403031	0.995281
959.702979	0.994325
960.002889	0.995312
960.302762	0.994274
960.602596	0.995319
960.902393	0.994352
961.202153	0.996112
961.501875	0.996646
961.801559	0.995264
962.101205	0.994712
962.400814	0.995781
962.700385	0.996534
962.999918	0.995289
963.299414	0.996868
963.598873	0.994908
963.898293	0.996540
964.197677	0.996070
964.497022	0.995753
964.796331	0.996807
965.095601	0.996483
965.394835	0.996177
965.694030	0.995739
965.993189	0.996644
966.292309	0.995427
966.591393	0.996514
966.890439	0.996583
967.189447	0.996779
967.488419	0.997500
967.787353	0.995120
968.086249	0.995991
968.385108	0.996945
968.683930	0.997186
968.982714	0.998309
969.281462	0.996727
969.580172	0.995920
969.878844	0.996579
970.177480	0.996647
970.476078	0.997832
970.774639	0.996039
971.073162	0.996858
971.371649	0.995294
971.670098	0.995827
971.968510	0.997541
972.266885	0.996144
972.565223	0.996790
972.863524	0.996665
973.161788	0.995776
973.460014	0.997516
973.758204	0.994951
974.056356	0.995712
974.354471	0.993960
974.652550	0.996496
974.950591	0.995916
975.248595	0.995874
975.546563	0.995894
975.844493	0.997879
976.142386	0.996430
976.440243	0.998073
976.738062	0.996560
977.035845	0.997604
977.333590	0.997229
977.631299	0.996866
977.928971	0.995882
978.226606	0.996783
978.524204	0.995424
978.821765	0.999181
979.119290	0.996913
979.416777	0.996030
979.714228	0.997014
980.011642	0.995543
980.309020	0.997358
980.606360	0.997067
980.903664	0.998004
981.200931	0.995220
981.498162	0.995143
981.795356	0.994392
982.092513	0.994020
982.389633	0.993791
982.686717	0.990991
982.983764	0.991032
983.280775	0.988440
983.577749	0.989717
983.874686	0.991620
984.171587	0.990807
984.468451	0.993583
984.765279	0.994405
985.062070	0.993870
985.358824	0.994458
985.655543	0.993829
985.952224	0.995566
986.248869	0.996430
986.545478	0.996958
986.842050	0.997406
987.138586	0.994723
987.435086	0.997126
987.731549	0.998764
988.027975	0.997633
988.324366	0.998357
988.620719	0.997150
988.917037	0.996304
989.213318	0.998098
989.509563	0.997831
989.805772	0.997421
990.101944	0.998349
990.398080	0.997585
990.694180	0.997236
990.990244	0.997421
991.286271	0.997277
991.582262	0.998275
991.878217	0.997951
992.174136	0.997847
992.470019	0.999047
992.765865	0.997912
993.061676	0.998032
993.357450	0.996915
993.653188	0.997002
993.948890	0.996713
994.244556	0.997179
994.540186	0.997859
994.835780	0.996006
995.131337	0.997580
995.426859	0.995271
995.722345	0.997432
996.017795	0.995911
996.313208	0.996699
996.608586	0.995339
996.903928	0.997087
997.199234	0.997312
997.494504	0.996447
997.789738	0.994811
998.084936	0.996066
998.380099	0.998656
998.675225	0.997466
998.970316	0.998064
999.265371	0.998099
999.560390	0.997335
999.855373	0.998708
1000.150320	0.998111
1000.445232	0.998145
1000.740108	0.996690
1001.034948	0.998445
1001.329752	0.998547
1001.624521	0.998664
1001.919254	0.997636
1002.213951	0.997605
1002.508613	0.997659
1002.803239	0.998784
1003.097829	0.998569
1003.392384	0.999628
1003.686903	0.998139
1003.981386	0.999131
1004.275834	0.998546
1004.570246	0.999196
1004.864623	0.998821
1005.158964	0.999392
1005.453270	0.998025
1005.747540	0.997403
1006.041775	0.997827
1006.335974	0.999688
1006.630138	0.999783
1006.924266	0.999631
1007.218359	0.999280
1007.512416	0.998231
1007.806438	0.998454
1008.100425	0.998858
1008.394376	0.998919
1008.688292	0.997946
1008.982172	1.001190
1009.276017	0.999047
1009.569827	0.999753
1009.863602	0.998502
1010.157341	0.999710
1010.451045	0.999267
1010.744714	0.999580
1011.038347	0.998579
1011.331945	0.999090
1011.625508	0.997995
1011.919036	0.999463
1012.212528	0.998377
1012.505986	0.998541
1012.799408	0.997617
1013.092795	0.999405
1013.386147	0.998043
1013.679464	0.999876
1013.972745	0.998299
1014.265992	0.996296
1014.559204	0.998738
1014.852380	0.999139
1015.145521	0.998786
1015.438628	0.998906
1015.731699	0.998286
1016.024736	0.998645
1016.317737	0.998818
1016.610703	0.998638
1016.903635	0.999665
1017.196531	0.998290
1017.489393	1.000427
1017.782219	0.998538
1018.075011	0.998344
1018.367768	0.998600
1018.660490	0.999083
1018.953177	0.999083
1019.245829	0.999083
