Dividing Wavelength (nm)	Counts (n)	Blue Motor Position (mm): 0.000000	Red Motor Position (mm): 37.900000	
326.493990	1.001044
326.888308	1.001044
327.282561	1.001044
327.676750	1.000370
328.070874	0.999186
328.464933	0.999693
328.858929	0.998475
329.252859	0.999552
329.646726	0.999366
330.040528	0.999259
330.434265	0.999475
330.827938	1.001145
331.221547	1.000568
331.615091	1.000354
332.008571	0.999859
332.401986	0.999418
332.795338	1.000399
333.188625	0.997475
333.581847	1.000782
333.975006	0.999084
334.368100	0.999146
334.761129	0.998910
335.154095	1.000320
335.546996	0.998964
335.939833	0.995953
336.332606	0.996886
336.725315	0.997260
337.117960	0.998376
337.510540	0.996772
337.903056	0.998044
338.295508	0.995746
338.687896	0.998532
339.080220	0.997500
339.472480	0.996547
339.864676	0.996183
340.256807	0.997833
340.648875	0.997530
341.040879	0.997581
341.432818	0.997255
341.824694	0.996781
342.216506	0.997312
342.608253	0.996180
342.999937	0.996572
343.391557	0.997530
343.783113	0.996711
344.174605	0.996030
344.566033	0.997184
344.957397	0.995584
345.348697	0.996847
345.739934	0.997113
346.131106	0.997582
346.522215	0.995454
346.913260	0.997129
347.304241	0.996502
347.695159	0.997232
348.086012	0.996255
348.476802	0.997819
348.867528	0.997059
349.258191	0.995422
349.648789	0.998211
350.039324	0.996726
350.429796	0.998698
350.820203	0.996579
351.210548	0.996712
351.600828	0.997057
351.991045	0.997967
352.381198	0.995926
352.771288	0.996936
353.161314	0.996688
353.551276	0.997757
353.941175	0.996587
354.331010	0.997190
354.720782	0.997665
355.110490	0.997359
355.500135	0.997556
355.889717	0.996924
356.279235	0.997889
356.668689	0.996795
357.058080	0.997446
357.447408	0.998425
357.836672	0.997155
358.225873	0.996715
358.615010	0.996564
359.004084	0.998071
359.393095	0.996933
359.782043	0.995755
360.170927	0.997728
360.559748	0.997907
360.948505	0.997137
361.337199	0.997491
361.725830	0.997261
362.114398	0.996655
362.502903	0.997825
362.891344	0.998656
363.279722	0.996540
363.668037	0.998210
364.056289	0.998279
364.444478	0.997647
364.832603	0.997931
365.220665	0.996451
365.608665	0.997330
365.996601	0.997494
366.384474	0.997651
366.772284	0.998074
367.160031	0.995948
367.547715	0.996342
367.935336	0.996924
368.322893	0.996215
368.710388	0.996869
369.097820	0.996595
369.485189	0.997392
369.872495	0.996428
370.259738	0.995064
370.646918	0.998246
371.034035	0.997677
371.421090	0.997855
371.808081	0.996745
372.195010	0.997400
372.581875	0.998002
372.968678	0.996939
373.355418	0.996260
373.742096	0.996776
374.128710	0.997987
374.515262	0.996528
374.901751	0.997679
375.288177	0.996638
375.674540	0.998106
376.060841	0.996968
376.447079	0.996968
376.833254	0.996757
377.219367	0.997225
377.605417	0.997624
377.991404	0.996807
378.377329	0.997079
378.763191	0.997341
379.148991	0.997907
379.534727	0.997462
379.920402	0.997848
380.306013	0.998195
380.691563	0.997933
381.077049	0.997290
381.462474	0.997615
381.847835	0.997975
382.233134	0.998151
382.618371	0.997402
383.003545	0.997976
383.388657	0.996155
383.773706	0.997874
384.158693	0.997281
384.543618	0.997226
384.928480	0.998605
385.313280	0.997818
385.698017	0.998996
386.082692	0.998722
386.467305	0.997672
386.851856	0.997414
387.236344	0.997607
387.620770	0.997246
388.005133	0.997974
388.389435	0.999116
388.773674	0.998491
389.157851	0.998433
389.541965	0.998475
389.926018	0.999022
390.310008	0.999327
390.693936	0.998298
391.077802	0.997782
391.461606	0.998857
391.845348	0.998755
392.229027	0.998240
392.612645	0.998387
392.996200	0.999995
393.379694	0.998681
393.763125	0.998829
394.146494	0.998657
394.529801	0.997543
394.913047	0.998562
395.296230	0.998228
395.679351	0.998849
396.062410	0.998299
396.445408	0.998541
396.828343	0.999006
397.211217	0.999142
397.594028	0.999478
397.976778	0.998381
398.359466	0.998324
398.742092	0.997765
399.124656	0.997673
399.507158	0.999013
399.889598	0.998480
400.271977	0.999063
400.654294	0.998918
401.036549	0.998617
401.418742	0.999739
401.800874	0.997317
402.182944	0.998666
402.564952	0.997196
402.946898	0.999112
403.328783	0.999381
403.710606	0.998151
404.092367	0.998548
404.474067	0.999230
404.855705	0.998536
405.237282	0.999607
405.618797	0.998115
406.000250	0.998281
406.381642	0.999273
406.762972	0.998931
407.144240	0.999240
407.525447	0.998733
407.906593	0.998988
408.287677	0.998575
408.668700	0.998980
409.049661	0.998151
409.430560	0.998791
409.811399	0.998621
410.192176	0.998155
410.572891	0.997739
410.953545	0.998313
411.334138	0.997696
411.714669	0.998424
412.095139	0.997666
412.475547	0.999476
412.855894	0.999097
413.236180	0.998835
413.616405	0.998046
413.996568	0.999390
414.376670	0.998796
414.756711	0.999268
415.136691	0.999035
415.516609	0.998547
415.896466	0.998467
416.276262	0.997901
416.655997	0.999754
417.035670	0.997227
417.415283	0.998629
417.794834	0.998728
418.174324	0.998817
418.553753	0.999175
418.933121	0.998405
419.312428	0.998836
419.691674	0.998694
420.070859	0.998799
420.449983	0.999232
420.829045	0.999049
421.208047	0.998727
421.586988	0.999893
421.965867	0.999560
422.344686	0.999232
422.723444	0.999545
423.102141	0.999080
423.480777	0.999082
423.859352	0.999002
424.237866	0.998574
424.616319	0.999324
424.994712	0.998406
425.373044	0.998424
425.751314	0.998872
426.129524	0.998500
426.507673	0.999222
426.885762	1.000335
427.263789	0.999200
427.641756	0.998917
428.019662	0.999367
428.397508	0.998202
428.775292	0.997458
429.153016	0.999333
429.530679	0.999578
429.908282	0.999240
430.285824	0.998056
430.663305	0.998726
431.040726	0.999013
431.418086	0.999739
431.795385	0.999459
432.172624	0.998501
432.549802	0.998851
432.926920	0.998967
433.303977	0.998269
433.680974	0.999213
434.057910	0.998945
434.434786	0.998888
434.811601	0.998579
435.188355	0.997963
435.565050	0.998564
435.941683	0.998313
436.318257	1.000573
436.694770	0.998446
437.071222	0.999122
437.447614	0.998402
437.823946	0.999059
438.200218	0.999443
438.576429	0.999589
438.952580	0.999666
439.328670	0.999004
439.704700	0.998663
440.080670	0.999720
440.456580	0.999001
440.832429	0.998451
441.208218	0.999002
441.583947	0.998880
441.959616	0.999539
442.335224	0.998977
442.710773	0.999797
443.086261	0.997987
443.461689	0.998563
443.837057	0.998288
444.212365	0.999357
444.587612	0.998860
444.962800	0.998683
445.337927	0.999645
445.712995	0.999079
446.088002	0.999573
446.462949	0.999142
446.837837	0.999181
447.212664	0.999644
447.587431	0.999190
447.962139	0.998774
448.336786	0.998416
448.711374	0.999003
449.085901	0.998809
449.460369	0.999372
449.834776	0.998320
450.209124	0.998667
450.583412	0.998898
450.957640	0.998813
451.331808	0.998756
451.705917	0.998641
452.079965	0.998749
452.453954	0.998951
452.827883	0.998808
453.201752	0.998924
453.575562	0.999645
453.949311	0.999009
454.323001	0.998750
454.696632	0.999348
455.070202	0.998729
455.443713	0.998495
455.817164	0.999619
456.190556	0.999385
456.563888	0.998794
456.937160	0.998900
457.310373	0.998716
457.683526	0.998568
458.056619	0.998148
458.429653	0.999215
458.802628	0.998493
459.175542	0.998519
459.548398	0.999202
459.921194	0.998112
460.293930	0.998346
460.666607	0.998218
461.039224	0.997836
461.411782	0.999174
461.784280	0.998445
462.156719	0.999777
462.529099	0.999241
462.901419	0.999183
463.273680	0.998829
463.645882	0.999494
464.018024	0.998246
464.390106	0.998890
464.762130	0.999829
465.134094	0.999401
465.505999	0.999361
465.877845	0.998818
466.249631	0.999048
466.621358	0.998632
466.993026	0.998830
467.364634	0.999031
467.736184	0.999394
468.107674	0.998996
468.479105	0.998617
468.850477	0.999304
469.221790	0.999112
469.593043	0.998938
469.964238	0.999426
470.335373	0.998618
470.706449	0.998740
471.077467	1.000065
471.448425	0.998717
471.819324	0.999454
472.190164	0.998733
472.560945	0.998953
472.931667	0.998899
473.302330	0.998814
473.672934	0.999680
474.043479	0.999552
474.413965	0.998416
474.784393	0.999137
475.154761	0.999227
475.525070	0.998837
475.895321	0.998966
476.265513	0.998941
476.635645	0.998560
477.005719	0.998541
477.375734	0.998423
477.745691	0.999077
478.115588	0.998822
478.485427	0.999209
478.855207	0.999014
479.224928	0.999082
479.594591	0.998618
479.964194	0.999050
480.333739	0.999146
480.703226	0.999307
481.072653	0.999365
481.442022	0.999703
481.811333	0.998673
482.180584	0.999199
482.549777	0.998720
482.918912	0.998587
483.287988	0.999065
483.657005	0.999548
484.025964	0.999645
484.394864	0.999448
484.763706	0.999274
485.132489	0.999283
485.501213	0.999722
485.869879	0.999199
486.238487	0.999274
486.607036	0.999619
486.975527	0.998666
487.343959	0.998890
487.712333	0.999030
488.080648	0.999586
488.448905	0.999323
488.817104	0.999333
489.185244	0.999518
489.553326	0.999374
489.921350	0.999541
490.289315	0.998615
490.657222	0.999413
491.025070	0.999519
491.392861	0.999637
491.760593	0.999530
492.128267	0.998971
492.495883	0.998750
492.863440	0.999045
493.230939	0.999208
493.598380	0.998891
493.965763	0.998898
494.333088	0.999501
494.700354	0.999045
495.067563	0.998634
495.434713	0.999019
495.801805	0.999683
496.168839	0.998944
496.535815	0.998509
496.902733	0.998114
497.269593	0.998656
497.636395	0.999117
498.003139	0.998751
498.369825	0.999236
498.736453	0.998563
499.103023	0.998506
499.469535	0.998246
499.835989	0.997922
500.202385	0.998884
500.568723	0.998900
500.935003	0.999251
501.301226	0.998900
501.667390	0.998776
502.033497	0.999028
502.399546	1.000133
502.765537	0.998190
503.131470	0.998910
503.497345	0.998350
503.863163	0.999593
504.228923	0.999545
504.594625	0.998318
504.960269	0.998876
505.325856	0.998936
505.691385	0.998642
506.056856	0.998769
506.422270	0.998393
506.787625	0.998965
507.152924	0.998155
507.518164	0.997732
507.883347	0.998495
508.248472	0.998193
508.613540	0.999036
508.978550	0.998602
509.343503	0.998731
509.708398	0.998801
510.073236	0.998704
510.438016	0.999376
510.802738	0.998265
511.167403	0.998536
511.532010	0.998739
511.896561	0.998691
512.261053	0.999328
512.625488	0.998036
512.989866	0.998540
513.354186	0.998007
513.718449	0.998932
514.082655	0.998199
514.446803	0.997822
514.810894	0.998562
515.174927	0.998192
515.538904	0.998076
515.902822	0.998056
516.266684	0.998615
516.630488	0.998936
516.994235	0.997718
517.357925	0.997852
517.721558	0.998755
518.085133	0.997597
518.448651	0.998649
518.812112	0.998132
519.175516	0.997474
519.538863	0.998461
519.902152	0.997782
520.265385	0.997593
520.628560	0.997577
520.991678	0.998081
521.354739	0.998074
521.717743	0.997690
522.080690	0.998425
522.443580	0.997917
522.806413	0.997619
523.169189	0.997445
523.531908	0.997450
523.894569	0.997212
524.257174	0.997342
524.619722	0.997567
524.982213	0.997873
525.344647	0.997377
525.707025	0.997331
526.069345	0.996670
526.431608	0.996793
526.793815	0.997181
527.155964	0.996288
527.518057	0.996986
527.880093	0.997594
528.242072	0.997049
528.603995	0.996841
528.965860	0.997567
529.327669	0.996632
529.689421	0.996623
530.051117	0.997193
530.412755	0.996418
530.774337	0.997023
531.135862	0.996584
531.497331	0.996105
531.858743	0.995796
532.220098	0.996018
532.581396	0.996078
532.942638	0.995982
533.303824	0.995498
533.664953	0.995366
534.026025	0.994879
534.387040	0.995055
534.747999	0.995557
535.108902	0.995025
535.469748	0.994584
535.830537	0.994460
536.191270	0.994009
536.551947	0.993593
536.912567	0.993799
537.273131	0.993802
537.633638	0.992425
537.994089	0.993395
538.354483	0.992666
538.714821	0.992799
539.075103	0.992018
539.435328	0.992002
539.795497	0.991554
540.155609	0.991100
540.515665	0.990746
540.875665	0.990947
541.235609	0.990547
541.595496	0.990215
541.955328	0.988607
542.315102	0.989791
542.674821	0.988965
543.034483	0.987708
543.394090	0.987702
543.753640	0.988195
544.113134	0.986502
544.472571	0.987399
544.831953	0.986288
545.191278	0.985354
545.550548	0.986392
545.909761	0.984320
546.268918	0.984465
546.628019	0.983616
546.987064	0.982581
547.346053	0.982850
547.704986	0.981670
548.063863	0.981707
548.422684	0.980619
548.781449	0.979857
549.140158	0.978685
549.498811	0.978217
549.857408	0.978033
550.215949	0.977237
550.574434	0.975781
550.932864	0.974967
551.291237	0.974716
551.649555	0.973329
552.007817	0.972199
552.366022	0.971716
552.724173	0.971395
553.082267	0.969636
553.440305	0.967560
553.798288	0.967835
554.156215	0.966495
554.514086	0.965252
554.871902	0.964110
555.229661	0.962409
555.587365	0.961011
555.945014	0.961711
556.302606	0.958892
556.660143	0.957994
557.017625	0.956346
557.375050	0.955111
557.732421	0.953097
558.089735	0.952225
558.446994	0.950878
558.804197	0.949394
559.161345	0.948095
559.518437	0.947307
559.875474	0.943921
560.232455	0.942074
560.589381	0.942326
560.946251	0.938373
561.303065	0.937908
561.659825	0.936426
562.016528	0.934091
562.373177	0.934210
562.729770	0.930097
563.086307	0.930142
563.442789	0.927615
563.799216	0.925343
564.155587	0.923038
564.511904	0.920812
564.868164	0.919002
565.224370	0.917949
565.580520	0.914587
565.936615	0.914078
566.292654	0.910320
566.648638	0.908888
567.004567	0.905883
567.360441	0.904857
567.716260	0.901752
568.072023	0.899715
568.427732	0.896370
568.783385	0.895842
569.138982	0.891578
569.494525	0.889314
569.850013	0.887876
570.205445	0.884243
570.560823	0.882531
570.916145	0.879445
571.271412	0.877154
571.626625	0.874336
571.981782	0.872277
572.336884	0.869612
572.691931	0.867268
573.046923	0.863066
573.401860	0.861935
573.756743	0.858940
574.111570	0.855509
574.466342	0.853654
574.821059	0.850082
575.175722	0.847737
575.530330	0.844427
575.884882	0.842035
576.239380	0.839472
576.593823	0.837226
576.948211	0.832846
577.302544	0.832540
577.656823	0.827932
578.011047	0.825598
578.365216	0.820879
578.719330	0.818748
579.073389	0.814781
579.427394	0.812820
579.781344	0.809764
580.135239	0.806722
580.489080	0.802947
580.842866	0.800237
581.196597	0.796941
581.550273	0.793824
581.903895	0.790255
582.257463	0.786442
582.610975	0.783283
582.964434	0.781056
583.317837	0.778405
583.671186	0.775902
584.024481	0.772042
584.377721	0.769356
584.730906	0.766496
585.084037	0.762770
585.437113	0.760536
585.790135	0.756457
586.143103	0.753950
586.496016	0.752190
586.848874	0.746531
587.201679	0.743896
587.554428	0.741581
587.907124	0.737565
588.259765	0.734668
588.612352	0.730937
588.964884	0.729773
589.317362	0.726006
589.669786	0.722114
590.022155	0.719248
590.374470	0.714274
590.726731	0.713207
591.078937	0.710759
591.431090	0.704747
591.783188	0.704369
592.135232	0.700547
592.487222	0.698333
592.839157	0.693030
593.191038	0.690924
593.542866	0.689113
593.894639	0.687189
594.246358	0.682525
594.598022	0.678935
594.949633	0.677924
595.301190	0.674397
595.652692	0.671106
596.004141	0.665385
596.355535	0.666664
596.706876	0.662817
597.058162	0.660363
597.409395	0.655833
597.760573	0.651722
598.111698	0.649942
598.462768	0.646139
598.813785	0.644998
599.164748	0.641653
599.515657	0.639338
599.866511	0.637176
600.217312	0.632217
600.568060	0.631657
600.918753	0.626539
601.269392	0.623726
601.619978	0.621655
601.970510	0.617304
602.320988	0.615142
602.671412	0.609664
603.021783	0.608453
603.372100	0.606240
603.722363	0.601832
604.072572	0.600443
604.422728	0.597117
604.772830	0.595040
605.122878	0.591269
605.472872	0.589625
605.822813	0.585320
606.172701	0.584100
606.522534	0.579922
606.872314	0.576806
607.222041	0.573509
607.571714	0.570140
607.921333	0.567374
608.270899	0.564762
608.620411	0.559707
608.969870	0.559881
609.319276	0.556412
609.668627	0.553315
610.017926	0.549562
610.367171	0.545796
610.716362	0.543342
611.065500	0.541100
611.414585	0.536830
611.763616	0.535360
612.112594	0.532731
612.461518	0.528982
612.810389	0.525695
613.159207	0.524043
613.507971	0.523032
613.856682	0.516846
614.205340	0.516322
614.553945	0.511175
614.902496	0.511547
615.250994	0.508105
615.599439	0.506630
615.947830	0.502903
616.296169	0.501572
616.644454	0.498902
616.992686	0.496841
617.340864	0.492773
617.688990	0.493400
618.037063	0.489280
618.385082	0.488374
618.733048	0.483137
619.080961	0.483342
619.428821	0.480793
619.776628	0.477745
620.124382	0.476885
620.472083	0.473867
620.819731	0.472266
621.167326	0.472675
621.514868	0.470251
621.862357	0.471617
622.209793	0.468904
622.557176	0.467890
622.904506	0.466467
623.251783	0.466605
623.599007	0.465207
623.946179	0.463072
624.293297	0.462479
624.640363	0.463510
624.987376	0.461267
625.334336	0.462264
625.681243	0.461759
626.028097	0.460443
626.374899	0.459825
626.721647	0.457106
627.068343	0.459081
627.414987	0.458399
627.761577	0.458027
628.108115	0.454761
628.454600	0.457882
628.801032	0.453318
629.147412	0.453808
629.493739	0.452443
629.840014	0.453897
630.186236	0.450299
630.532405	0.453576
630.878521	0.449996
631.224585	0.450708
631.570597	0.452205
631.916556	0.449474
632.262462	0.448425
632.608316	0.449001
632.954117	0.448191
633.299866	0.447682
633.645562	0.446729
633.991206	0.448913
634.336797	0.449953
634.682336	0.450038
635.027823	0.450327
635.373257	0.449204
635.718639	0.450709
636.063968	0.448868
636.409245	0.452785
636.754470	0.451757
637.099642	0.452586
637.444762	0.454464
637.789829	0.452270
638.134845	0.454470
638.479808	0.454445
638.824719	0.452969
639.169577	0.455710
639.514383	0.453089
639.859137	0.456424
640.203839	0.455444
640.548489	0.454345
640.893086	0.455224
641.237632	0.455318
641.582125	0.453042
641.926566	0.453760
642.270955	0.452796
642.615292	0.452312
642.959576	0.450690
643.303809	0.450580
643.647990	0.448833
643.992118	0.448665
644.336195	0.450923
644.680219	0.448796
645.024192	0.448424
645.368112	0.442248
645.711981	0.440703
646.055797	0.435503
646.399562	0.437783
646.743274	0.429552
647.086935	0.426764
647.430544	0.426310
647.774101	0.424873
648.117606	0.423753
648.461059	0.423507
648.804460	0.424652
649.147810	0.428905
649.491108	0.430168
649.834354	0.430758
650.177548	0.435402
650.520690	0.439584
650.863781	0.439964
651.206820	0.438733
651.549807	0.442746
651.892742	0.445894
652.235626	0.445014
652.578458	0.444702
652.921238	0.450464
653.263967	0.448106
653.606644	0.451423
653.949269	0.450695
654.291843	0.454242
654.634365	0.450340
654.976836	0.453112
655.319255	0.452744
655.661622	0.453804
656.003938	0.453785
656.346203	0.456063
656.688416	0.452827
657.030577	0.456543
657.372687	0.457663
657.714746	0.458067
658.056753	0.454760
658.398708	0.458123
658.740612	0.459021
659.082465	0.455074
659.424266	0.454985
659.766016	0.454427
660.107715	0.456528
660.449362	0.455288
660.790958	0.455671
661.132503	0.455899
661.473996	0.453314
661.815438	0.453529
662.156829	0.453444
662.498168	0.454218
662.839456	0.455552
663.180693	0.452443
663.521879	0.452174
663.863013	0.452959
664.204097	0.451156
664.545129	0.448289
664.886110	0.448724
665.227040	0.445402
665.567918	0.447656
665.908746	0.445215
666.249522	0.444584
666.590248	0.445458
666.930922	0.443567
667.271545	0.442268
667.612118	0.442181
667.952639	0.443777
668.293109	0.442043
668.633528	0.445091
668.973896	0.444366
669.314213	0.444428
669.654480	0.445860
669.994695	0.446151
670.334859	0.447025
670.674973	0.446797
671.015035	0.446603
671.355047	0.446887
671.695008	0.446910
672.034918	0.449048
672.374777	0.448698
672.714585	0.449143
673.054342	0.449448
673.394049	0.449403
673.733705	0.447118
674.073310	0.447892
674.412864	0.450497
674.752368	0.450877
675.091820	0.451383
675.431223	0.455496
675.770574	0.455091
676.109875	0.458169
676.449125	0.457286
676.788324	0.460105
677.127473	0.465450
677.466571	0.464734
677.805619	0.466200
678.144616	0.466895
678.483562	0.468065
678.822458	0.471249
679.161303	0.472404
679.500098	0.472501
679.838842	0.474425
680.177535	0.473626
680.516179	0.472351
680.854771	0.470881
681.193314	0.464555
681.531805	0.456127
681.870247	0.444503
682.208638	0.437238
682.546978	0.435762
682.885268	0.437489
683.223508	0.443804
683.561697	0.446905
683.899836	0.450155
684.237925	0.452922
684.575963	0.455528
684.913951	0.458429
685.251889	0.454103
685.589776	0.456696
685.927614	0.458978
686.265401	0.453001
686.603137	0.454541
686.940824	0.448127
687.278460	0.446655
687.616046	0.445881
687.953582	0.440615
688.291068	0.442109
688.628504	0.437863
688.965889	0.439964
689.303224	0.444445
689.640510	0.447964
689.977745	0.453596
690.314930	0.461612
690.652065	0.465219
690.989150	0.472973
691.326185	0.479168
691.663170	0.483816
692.000105	0.491167
692.336990	0.497830
692.673825	0.500010
693.010610	0.506941
693.347345	0.512458
693.684030	0.513676
694.020665	0.518910
694.357251	0.527402
694.693786	0.527139
695.030272	0.530898
695.366707	0.534563
695.703093	0.538101
696.039429	0.534891
696.375716	0.537394
696.711952	0.540727
697.048139	0.542132
697.384276	0.543974
697.720363	0.541890
698.056400	0.540920
698.392388	0.546549
698.728326	0.549781
699.064214	0.552603
699.400053	0.553201
699.735842	0.556542
700.071581	0.560073
700.407270	0.562311
700.742910	0.564866
701.078501	0.572217
701.414042	0.571184
701.749533	0.574133
702.084974	0.583435
702.420366	0.575241
702.755709	0.583377
703.091002	0.590936
703.426246	0.583742
703.761440	0.590610
704.096584	0.595207
704.431679	0.591874
704.766725	0.593703
705.101721	0.594873
705.436668	0.591593
705.771565	0.598833
706.106413	0.595119
706.441212	0.590429
706.775961	0.589494
707.110661	0.592058
707.445311	0.588098
707.779913	0.585909
708.114465	0.584274
708.448967	0.581243
708.783421	0.572774
709.117825	0.567222
709.452180	0.567897
709.786485	0.561597
710.120742	0.551122
710.454949	0.553619
710.789107	0.545804
711.123216	0.536831
711.457275	0.538669
711.791286	0.529608
712.125247	0.528050
712.459159	0.539435
712.793023	0.531973
713.126837	0.535886
713.460602	0.536449
713.794318	0.545668
714.127985	0.543656
714.461602	0.554005
714.795171	0.557593
715.128691	0.565154
715.462162	0.572446
715.795584	0.577799
716.128957	0.580886
716.462281	0.587818
716.795556	0.591069
717.128782	0.596328
717.461960	0.605286
717.795088	0.603703
718.128167	0.610498
718.461198	0.618880
718.794180	0.619483
719.127113	0.621976
719.459997	0.625631
719.792833	0.631972
720.125619	0.632818
720.458357	0.638472
720.791046	0.637961
721.123686	0.641679
721.456278	0.648716
721.788821	0.645589
722.121315	0.650530
722.453761	0.654430
722.786158	0.651989
723.118506	0.648838
723.450805	0.656942
723.783056	0.652536
724.115259	0.650159
724.447412	0.649603
724.779518	0.651110
725.111574	0.649406
725.443582	0.645959
725.775542	0.647788
726.107453	0.640257
726.439315	0.638691
726.771129	0.637648
727.102895	0.630990
727.434612	0.624218
727.766281	0.622258
728.097901	0.621508
728.429473	0.621236
728.760996	0.619428
729.092471	0.619800
729.423897	0.623297
729.755276	0.622556
730.086606	0.623026
730.417887	0.617789
730.749120	0.608153
731.080305	0.598962
731.411442	0.595456
731.742530	0.600367
732.073570	0.599184
732.404562	0.591691
732.735506	0.593169
733.066401	0.598347
733.397249	0.607218
733.728048	0.617722
734.058798	0.629728
734.389501	0.641027
734.720156	0.649818
735.050762	0.658353
735.381320	0.659340
735.711831	0.669248
736.042293	0.673376
736.372707	0.668431
736.703073	0.673922
737.033391	0.675961
737.363661	0.674162
737.693883	0.668407
738.024056	0.667897
738.354182	0.668534
738.684260	0.657698
739.014290	0.653324
739.344272	0.654940
739.674207	0.647854
740.004093	0.646818
740.333931	0.647555
740.663722	0.647606
740.993464	0.647655
741.323159	0.651580
741.652806	0.656673
741.982405	0.661397
742.311956	0.665568
742.641460	0.668247
742.970915	0.672288
743.300323	0.679392
743.629683	0.686493
743.958996	0.688604
744.288260	0.691945
744.617477	0.698223
744.946647	0.699908
745.275768	0.705384
745.604842	0.705250
745.933869	0.714668
746.262847	0.715429
746.591778	0.708362
746.920662	0.715126
747.249498	0.720314
747.578286	0.711967
747.907027	0.708309
748.235720	0.709824
748.564365	0.704138
748.892963	0.704094
749.221514	0.707217
749.550017	0.712725
749.878473	0.711756
750.206881	0.718189
750.535242	0.719269
750.863555	0.718837
751.191821	0.720581
751.520039	0.724137
751.848210	0.728752
752.176334	0.721350
752.504411	0.720185
752.832440	0.727545
753.160421	0.732187
753.488356	0.729808
753.816243	0.727642
754.144082	0.735900
754.471875	0.739235
754.799620	0.734916
755.127318	0.736565
755.454969	0.736895
755.782572	0.735341
756.110129	0.740362
756.437638	0.743306
756.765100	0.739437
757.092515	0.737656
757.419882	0.736466
757.747203	0.742028
758.074477	0.741720
758.401703	0.738379
758.728882	0.733938
759.056014	0.732949
759.383099	0.730923
759.710138	0.732340
760.037129	0.729123
760.364073	0.724042
760.690970	0.725785
761.017820	0.731018
761.344623	0.727239
761.671379	0.717685
761.998088	0.707433
762.324751	0.684378
762.651366	0.643225
762.977935	0.577057
763.304456	0.525285
763.630931	0.515467
763.957359	0.555097
764.283740	0.598916
764.610074	0.625223
764.936362	0.655696
765.262602	0.682648
765.588796	0.704017
765.914943	0.721570
766.241044	0.738845
766.567097	0.745886
766.893104	0.754884
767.219064	0.762409
767.544978	0.767886
767.870845	0.780009
768.196665	0.784726
768.522438	0.782653
768.848165	0.783655
769.173846	0.793562
769.499479	0.797047
769.825066	0.801545
770.150607	0.805341
770.476101	0.801047
770.801548	0.801855
771.126949	0.813498
771.452303	0.816775
771.777611	0.816087
772.102872	0.815400
772.428087	0.821322
772.753256	0.824216
773.078378	0.825895
773.403453	0.835248
773.728482	0.839360
774.053465	0.833451
774.378401	0.836929
774.703291	0.845256
775.028135	0.844202
775.352932	0.846055
775.677683	0.849148
776.002388	0.849504
776.327046	0.848781
776.651658	0.852198
776.976224	0.854671
777.300743	0.855927
777.625216	0.858330
777.949643	0.858855
778.274024	0.859134
778.598359	0.862720
778.922647	0.859482
779.246889	0.860936
779.571086	0.864317
779.895236	0.866509
780.219339	0.864859
780.543397	0.860323
780.867409	0.860119
781.191374	0.862106
781.515294	0.862877
781.839167	0.861866
782.162995	0.865317
782.486776	0.861877
782.810511	0.863202
783.134201	0.866429
783.457844	0.864715
783.781441	0.866859
784.104993	0.872918
784.428498	0.873502
784.751958	0.868867
785.075372	0.872179
785.398739	0.875701
785.722061	0.871078
786.045337	0.867463
786.368568	0.871310
786.691752	0.874909
787.014891	0.859693
787.337983	0.851875
787.661030	0.844044
787.984031	0.827617
788.306987	0.813749
788.629897	0.816282
788.952760	0.820397
789.275579	0.823977
789.598351	0.839356
789.921078	0.852663
790.243759	0.855638
790.566395	0.859347
790.888984	0.866652
791.211529	0.871711
791.534027	0.875305
791.856480	0.877132
792.178888	0.882289
792.501249	0.884648
792.823566	0.885560
793.145836	0.885180
793.468062	0.887104
793.790241	0.887160
794.112375	0.886529
794.434464	0.880704
794.756507	0.879680
795.078505	0.880056
795.400457	0.875565
795.722364	0.863450
796.044226	0.855765
796.366042	0.855877
796.687812	0.859378
797.009538	0.855135
797.331218	0.857571
797.652852	0.862292
797.974442	0.867019
798.295986	0.867963
798.617484	0.869443
798.938938	0.873489
799.260346	0.878589
799.581709	0.880193
799.903026	0.883770
800.224299	0.883482
800.545526	0.887525
800.866708	0.891641
801.187845	0.895149
801.508936	0.894782
801.829983	0.892949
802.150984	0.894182
802.471940	0.900273
802.792851	0.900312
803.113717	0.900336
803.434538	0.898914
803.755314	0.901371
804.076045	0.901662
804.396731	0.901656
804.717372	0.901821
805.037967	0.904671
805.358518	0.902360
805.679024	0.898457
805.999485	0.898683
806.319901	0.899588
806.640272	0.899986
806.960598	0.898679
807.280879	0.896428
807.601115	0.894034
807.921306	0.898156
808.241453	0.898883
808.561554	0.896933
808.881611	0.896877
809.201623	0.898970
809.521590	0.898534
809.841513	0.899881
810.161390	0.898538
810.481223	0.900232
810.801011	0.903382
811.120755	0.905942
811.440453	0.904770
811.760107	0.903253
812.079716	0.901959
812.399281	0.906213
812.718801	0.909805
813.038276	0.910203
813.357707	0.909344
813.677093	0.904764
813.996434	0.910096
814.315731	0.912301
814.634983	0.912239
814.954191	0.910381
815.273354	0.907807
815.592473	0.904639
815.911547	0.904144
816.230577	0.901529
816.549562	0.899329
816.868502	0.900140
817.187399	0.896175
817.506250	0.890639
817.825058	0.893009
818.143821	0.889998
818.462539	0.884216
818.781213	0.876711
819.099843	0.865841
819.418429	0.849801
819.736970	0.834500
820.055466	0.814974
820.373919	0.789143
820.692327	0.756920
821.010691	0.722972
821.329011	0.647805
821.647286	0.535500
821.965517	0.422886
822.283704	0.380896
822.601847	0.382713
822.919945	0.418610
823.237999	0.451002
823.556010	0.496251
823.873976	0.551099
824.191897	0.601344
824.509775	0.642665
824.827609	0.686988
825.145398	0.709571
825.463144	0.712341
825.780845	0.695138
826.098502	0.676399
826.416116	0.631896
826.733685	0.588867
827.051210	0.581520
827.368692	0.595504
827.686129	0.631206
828.003522	0.684130
828.320872	0.730258
828.638177	0.773886
828.955439	0.805664
829.272656	0.826557
829.589830	0.842193
829.906960	0.858331
830.224046	0.870007
830.541088	0.880867
830.858086	0.884687
831.175041	0.891018
831.491952	0.890212
831.808819	0.887495
832.125642	0.880446
832.442421	0.865918
832.759157	0.844713
833.075849	0.799704
833.392497	0.736634
833.709101	0.697029
834.025662	0.706404
834.342179	0.737189
834.658653	0.776069
834.975083	0.812276
835.291469	0.837139
835.607811	0.858837
835.924110	0.874854
836.240366	0.890838
836.556578	0.905064
836.872746	0.912331
837.188871	0.917069
837.504952	0.923253
837.820990	0.926657
838.136984	0.930418
838.452935	0.932363
838.768842	0.934362
839.084706	0.926673
839.400526	0.903605
839.716303	0.862800
840.032037	0.842629
840.347727	0.844696
840.663373	0.862514
840.978977	0.884225
841.294537	0.905240
841.610054	0.922055
841.925527	0.929475
842.240957	0.935835
842.556344	0.942534
842.871687	0.949348
843.186987	0.951604
843.502244	0.952198
843.817458	0.953455
844.132629	0.958441
844.447756	0.962287
844.762840	0.962290
845.077881	0.961322
845.392879	0.961440
845.707833	0.965392
846.022745	0.966118
846.337613	0.966468
846.652438	0.967864
846.967221	0.966071
847.281960	0.966209
847.596656	0.969282
847.911309	0.968485
848.225919	0.969915
848.540485	0.969973
848.855009	0.970021
849.169490	0.970227
849.483928	0.971035
849.798323	0.970679
850.112675	0.971947
850.426984	0.971888
850.741251	0.971233
851.055474	0.971606
851.369654	0.969611
851.683792	0.971408
851.997887	0.970048
852.311938	0.971910
852.625947	0.972021
852.939914	0.969405
853.253837	0.970267
853.567718	0.971821
853.881555	0.972573
854.195350	0.970216
854.509103	0.971367
854.822812	0.971939
855.136479	0.972809
855.450103	0.971041
855.763685	0.971058
856.077224	0.970572
856.390720	0.973095
856.704173	0.972826
857.017584	0.969390
857.330953	0.968876
857.644278	0.970723
857.957561	0.970520
858.270802	0.969344
858.584000	0.969184
858.897155	0.968699
859.210268	0.968856
859.523339	0.970790
859.836367	0.972559
860.149352	0.971433
860.462295	0.970571
860.775195	0.971264
861.088054	0.970522
861.400869	0.970647
861.713642	0.971965
862.026373	0.971503
862.339062	0.973327
862.651708	0.969879
862.964312	0.968540
863.276873	0.970821
863.589392	0.970120
863.901869	0.968374
864.214303	0.967083
864.526696	0.966171
864.839045	0.965363
865.151353	0.963728
865.463619	0.963912
865.775842	0.964614
866.088023	0.964256
866.400162	0.964357
866.712258	0.965601
867.024313	0.964951
867.336325	0.964873
867.648296	0.964405
867.960224	0.964331
868.272110	0.965176
868.583954	0.965781
868.895755	0.965391
869.207515	0.963255
869.519233	0.961090
869.830909	0.963048
870.142542	0.964706
870.454134	0.964222
870.765684	0.962823
871.077191	0.960581
871.388657	0.962010
871.700081	0.960659
872.011463	0.960308
872.322803	0.961004
872.634101	0.959035
872.945357	0.956957
873.256571	0.956672
873.567744	0.955192
873.878874	0.955981
874.189963	0.953638
874.501010	0.954061
874.812015	0.951560
875.122979	0.954129
875.433900	0.955217
875.744780	0.957392
876.055618	0.953855
876.366415	0.952213
876.677169	0.953480
876.987882	0.954153
877.298554	0.954386
877.609183	0.950404
877.919771	0.948047
878.230317	0.945195
878.540822	0.944272
878.851285	0.937894
879.161707	0.931141
879.472087	0.920175
879.782425	0.904576
880.092722	0.872298
880.402977	0.821510
880.713191	0.763263
881.023363	0.707051
881.333494	0.674344
881.643583	0.646538
881.953631	0.645679
882.263637	0.674294
882.573602	0.713041
882.883526	0.737970
883.193408	0.760587
883.503248	0.782402
883.813048	0.808250
884.122806	0.836105
884.432522	0.859588
884.742197	0.878123
885.051831	0.888276
885.361424	0.896140
885.670975	0.909210
885.980485	0.917786
886.289954	0.924497
886.599382	0.930116
886.908768	0.932114
887.218113	0.938207
887.527417	0.942421
887.836680	0.945920
888.145901	0.947787
888.455082	0.950518
888.764221	0.953491
889.073319	0.955502
889.382376	0.956134
889.691392	0.956713
890.000366	0.956208
890.309300	0.956418
890.618193	0.956451
890.927044	0.954741
891.235855	0.954450
891.544625	0.953509
891.853353	0.955921
892.162041	0.952990
892.470687	0.947528
892.779293	0.941700
893.087858	0.938509
893.396381	0.931421
893.704864	0.918264
894.013306	0.895383
894.321707	0.869728
894.630068	0.856680
894.938387	0.852641
895.246665	0.853013
895.554903	0.865085
895.863100	0.878084
896.171256	0.893811
896.479371	0.911642
896.787446	0.924771
897.095480	0.930134
897.403473	0.933923
897.711425	0.935704
898.019336	0.944796
898.327207	0.947293
898.635038	0.949144
898.942827	0.949422
899.250576	0.952310
899.558284	0.956873
899.865952	0.957335
900.173579	0.958598
900.481165	0.958627
900.788711	0.963544
901.096216	0.964132
901.403681	0.965107
901.711105	0.966301
902.018489	0.966554
902.325832	0.964716
902.633135	0.964771
902.940397	0.959066
903.247619	0.948392
903.554800	0.924524
903.861941	0.886416
904.169041	0.852138
904.476101	0.837551
904.783121	0.837430
905.090100	0.852427
905.397039	0.873888
905.703938	0.893418
906.010796	0.912050
906.317614	0.927621
906.624391	0.939035
906.931129	0.948726
907.237826	0.955902
907.544483	0.963039
907.851099	0.965373
908.157675	0.970481
908.464211	0.972772
908.770707	0.975335
909.077163	0.976503
909.383578	0.976620
909.689954	0.977730
909.996289	0.977774
910.302584	0.978959
910.608839	0.981543
910.915054	0.981724
911.221229	0.979251
911.527363	0.979824
911.833458	0.978938
912.139513	0.979501
912.445527	0.977955
912.751502	0.975764
913.057436	0.975059
913.363331	0.971589
913.669186	0.969265
913.975000	0.964826
914.280775	0.959421
914.586510	0.953361
914.892205	0.940173
915.197859	0.920349
915.503475	0.893674
915.809050	0.875080
916.114585	0.872426
916.420081	0.870139
916.725536	0.866077
917.030952	0.873759
917.336328	0.884684
917.641665	0.899548
917.946961	0.914193
918.252218	0.925936
918.557435	0.933381
918.862612	0.941594
919.167750	0.946651
919.472848	0.950840
919.777906	0.957308
920.082925	0.963190
920.387904	0.964879
920.692843	0.966461
920.997743	0.967328
921.302603	0.969228
921.607423	0.971299
921.912204	0.974732
922.216946	0.973631
922.521647	0.976395
922.826310	0.976634
923.130932	0.979605
923.435516	0.980311
923.740059	0.982040
924.044564	0.979828
924.349028	0.983515
924.653454	0.984757
924.957840	0.986781
925.262186	0.986256
925.566493	0.985986
925.870761	0.985716
926.174989	0.988793
926.479178	0.989979
926.783328	0.989399
927.087438	0.990447
927.391509	0.989142
927.695541	0.991752
927.999533	0.991221
928.303486	0.990616
928.607400	0.992147
928.911275	0.990549
929.215110	0.991480
929.518906	0.991929
929.822663	0.990449
930.126381	0.992537
930.430060	0.992480
930.733699	0.991323
931.037299	0.990489
931.340861	0.992876
931.644383	0.991317
931.947866	0.991571
932.251309	0.992345
932.554714	0.990794
932.858080	0.991104
933.161407	0.991452
933.464694	0.992753
933.767943	0.991279
934.071153	0.992815
934.374323	0.993377
934.677455	0.992556
934.980548	0.992846
935.283602	0.992137
935.586617	0.992351
935.889593	0.991290
936.192530	0.992199
936.495428	0.992707
936.798287	0.992473
937.101108	0.991817
937.403890	0.990593
937.706632	0.990222
938.009336	0.988720
938.312002	0.988236
938.614628	0.987402
938.917216	0.985821
939.219765	0.983176
939.522275	0.984529
939.824747	0.984648
940.127179	0.984719
940.429573	0.987438
940.731929	0.985777
941.034246	0.986206
941.336524	0.986945
941.638763	0.988310
941.940964	0.988242
942.243126	0.988273
942.545250	0.989769
942.847335	0.989296
943.149381	0.988837
943.451389	0.990543
943.753359	0.989405
944.055290	0.992648
944.357182	0.990818
944.659036	0.990217
944.960851	0.989965
945.262628	0.990892
945.564367	0.991910
945.866067	0.991809
946.167729	0.991179
946.469352	0.990528
946.770937	0.989965
947.072484	0.992244
947.373992	0.990850
947.675462	0.990528
947.976893	0.991493
948.278286	0.992270
948.579641	0.992599
948.880958	0.992298
949.182236	0.992712
949.483476	0.992360
949.784678	0.992525
950.085841	0.992049
950.386967	0.991809
950.688054	0.991354
950.989103	0.992037
951.290114	0.990686
951.591087	0.992420
951.892021	0.991454
952.192917	0.990496
952.493776	0.989775
952.794596	0.989613
953.095378	0.989635
953.396122	0.990431
953.696828	0.989870
953.997496	0.991709
954.298126	0.992253
954.598718	0.992010
954.899272	0.991788
955.199788	0.992350
955.500266	0.993443
955.800706	0.994159
956.101108	0.995062
956.401472	0.995379
956.701798	0.994960
957.002087	0.993284
957.302337	0.995189
957.602550	0.995197
957.902724	0.996344
958.202861	0.995947
958.502960	0.995911
958.803022	0.994683
959.103045	0.997269
959.403031	0.996681
959.702979	0.995425
960.002889	0.996467
960.302762	0.995353
960.602596	0.996772
960.902393	0.995379
961.202153	0.998482
961.501875	0.997761
961.801559	0.996500
962.101205	0.996008
962.400814	0.997483
962.700385	0.996424
962.999918	0.996795
963.299414	0.996944
963.598873	0.996906
963.898293	0.997264
964.197677	0.997242
964.497022	0.997672
964.796331	0.998494
965.095601	0.997107
965.394835	0.997762
965.694030	0.997221
965.993189	0.997733
966.292309	0.996775
966.591393	0.998712
966.890439	0.997765
967.189447	0.997042
967.488419	0.997693
967.787353	0.995643
968.086249	0.996744
968.385108	0.997621
968.683930	0.997665
968.982714	0.997871
969.281462	0.998085
969.580172	0.997579
969.878844	0.997875
970.177480	0.997738
970.476078	0.998201
970.774639	0.997219
971.073162	0.998386
971.371649	0.997589
971.670098	0.997452
971.968510	0.998121
972.266885	0.995844
972.565223	0.996824
972.863524	0.997165
973.161788	0.996678
973.460014	0.997744
973.758204	0.996167
974.056356	0.998020
974.354471	0.995578
974.652550	0.996484
974.950591	0.997494
975.248595	0.996604
975.546563	0.997331
975.844493	0.998202
976.142386	0.997556
976.440243	0.997971
976.738062	0.998392
977.035845	0.998175
977.333590	0.998204
977.631299	0.997283
977.928971	0.997069
978.226606	0.996961
978.524204	0.996731
978.821765	0.997898
979.119290	0.997940
979.416777	0.997154
979.714228	0.997827
980.011642	0.996506
980.309020	0.997882
980.606360	0.997631
980.903664	0.999051
981.200931	0.997247
981.498162	0.995193
981.795356	0.995073
982.092513	0.994899
982.389633	0.994996
982.686717	0.992696
982.983764	0.993622
983.280775	0.991473
983.577749	0.991405
983.874686	0.992082
984.171587	0.992900
984.468451	0.994018
984.765279	0.994072
985.062070	0.995337
985.358824	0.996752
985.655543	0.996459
985.952224	0.996823
986.248869	0.996431
986.545478	0.997378
986.842050	0.999349
987.138586	0.995343
987.435086	0.997504
987.731549	0.999444
988.027975	0.998865
988.324366	0.997667
988.620719	0.996954
988.917037	0.996497
989.213318	0.997252
989.509563	0.998104
989.805772	0.998666
990.101944	0.999671
990.398080	0.998098
990.694180	0.998945
990.990244	0.998224
991.286271	0.998903
991.582262	0.999239
991.878217	0.998373
992.174136	0.998100
992.470019	0.998236
992.765865	0.997977
993.061676	0.998464
993.357450	0.998246
993.653188	0.996820
993.948890	0.997797
994.244556	0.997268
994.540186	0.997805
994.835780	0.997417
995.131337	0.997337
995.426859	0.996393
995.722345	0.997722
996.017795	0.996855
996.313208	0.996218
996.608586	0.996252
996.903928	0.997236
997.199234	0.997195
997.494504	0.997225
997.789738	0.997291
998.084936	0.996567
998.380099	0.999147
998.675225	0.997507
998.970316	0.997519
999.265371	0.998409
999.560390	0.997689
999.855373	0.999169
1000.150320	0.997703
1000.445232	0.998233
1000.740108	0.999130
1001.034948	0.998084
1001.329752	0.999982
1001.624521	0.998591
1001.919254	0.998241
1002.213951	0.998026
1002.508613	0.997954
1002.803239	0.999119
1003.097829	0.999706
1003.392384	0.998784
1003.686903	0.999081
1003.981386	0.999860
1004.275834	0.998621
1004.570246	0.998029
1004.864623	0.999787
1005.158964	0.999051
1005.453270	0.999269
1005.747540	0.997176
1006.041775	0.998179
1006.335974	0.999645
1006.630138	1.000829
1006.924266	0.998966
1007.218359	1.000745
1007.512416	0.999349
1007.806438	1.000718
1008.100425	0.999208
1008.394376	0.998267
1008.688292	0.999623
1008.982172	1.000236
1009.276017	0.999240
1009.569827	0.998860
1009.863602	0.999074
1010.157341	0.999782
1010.451045	0.999772
1010.744714	0.998653
1011.038347	0.999287
1011.331945	0.998821
1011.625508	0.997954
1011.919036	0.999028
1012.212528	0.999250
1012.505986	0.998231
1012.799408	0.998856
1013.092795	0.999647
1013.386147	0.998402
1013.679464	0.998498
1013.972745	0.998273
1014.265992	0.997663
1014.559204	0.998655
1014.852380	0.998488
1015.145521	0.999753
1015.438628	0.998941
1015.731699	0.998839
1016.024736	0.998568
1016.317737	0.998856
1016.610703	0.999030
1016.903635	0.998669
1017.196531	0.998696
1017.489393	0.999517
1017.782219	0.999351
1018.075011	0.999023
1018.367768	0.999801
1018.660490	0.999663
1018.953177	0.999663
1019.245829	0.999663
