Dividing Wavelength (nm)	Counts (n)	Blue Motor Position (mm): 0.000000	Red Motor Position (mm): 16.400000	
326.493990	1.002000
326.888308	1.002000
327.282561	1.002000
327.676750	1.000456
328.070874	1.000822
328.464933	1.000946
328.858929	1.000340
329.252859	1.000706
329.646726	0.999647
330.040528	1.000130
330.434265	0.999294
330.827938	1.001800
331.221547	1.000966
331.615091	1.000422
332.008571	1.000467
332.401986	1.000170
332.795338	1.001397
333.188625	0.999026
333.581847	1.000678
333.975006	0.999336
334.368100	0.999914
334.761129	1.000464
335.154095	1.001123
335.546996	0.997332
335.939833	0.994811
336.332606	0.993280
336.725315	0.993875
337.117960	0.995185
337.510540	0.994262
337.903056	0.995592
338.295508	0.992379
338.687896	0.995589
339.080220	0.994701
339.472480	0.994865
339.864676	0.993768
340.256807	0.995104
340.648875	0.995686
341.040879	0.994324
341.432818	0.994830
341.824694	0.994533
342.216506	0.995229
342.608253	0.994117
342.999937	0.994087
343.391557	0.995122
343.783113	0.995518
344.174605	0.994097
344.566033	0.995095
344.957397	0.994404
345.348697	0.993193
345.739934	0.994912
346.131106	0.993863
346.522215	0.993960
346.913260	0.993551
347.304241	0.994492
347.695159	0.994235
348.086012	0.993514
348.476802	0.994614
348.867528	0.995022
349.258191	0.993254
349.648789	0.995585
350.039324	0.993497
350.429796	0.994982
350.820203	0.994529
351.210548	0.994670
351.600828	0.995225
351.991045	0.994518
352.381198	0.993844
352.771288	0.993652
353.161314	0.994391
353.551276	0.996325
353.941175	0.993996
354.331010	0.992667
354.720782	0.994977
355.110490	0.994201
355.500135	0.994912
355.889717	0.993684
356.279235	0.992978
356.668689	0.992970
357.058080	0.994221
357.447408	0.995330
357.836672	0.994590
358.225873	0.995202
358.615010	0.994288
359.004084	0.996749
359.393095	0.995477
359.782043	0.994254
360.170927	0.995688
360.559748	0.994976
360.948505	0.993986
361.337199	0.993858
361.725830	0.994129
362.114398	0.994756
362.502903	0.994955
362.891344	0.995190
363.279722	0.994615
363.668037	0.994897
364.056289	0.995330
364.444478	0.994177
364.832603	0.993902
365.220665	0.995292
365.608665	0.993776
365.996601	0.994970
366.384474	0.993971
366.772284	0.994864
367.160031	0.991848
367.547715	0.993194
367.935336	0.994703
368.322893	0.994346
368.710388	0.993851
369.097820	0.994044
369.485189	0.994785
369.872495	0.993310
370.259738	0.993670
370.646918	0.994868
371.034035	0.995086
371.421090	0.994264
371.808081	0.994218
372.195010	0.993726
372.581875	0.994941
372.968678	0.994712
373.355418	0.994489
373.742096	0.993095
374.128710	0.995309
374.515262	0.994769
374.901751	0.993690
375.288177	0.994533
375.674540	0.995631
376.060841	0.993583
376.447079	0.994068
376.833254	0.994491
377.219367	0.994621
377.605417	0.994852
377.991404	0.994431
378.377329	0.994081
378.763191	0.994885
379.148991	0.995558
379.534727	0.995143
379.920402	0.994784
380.306013	0.994996
380.691563	0.994900
381.077049	0.994279
381.462474	0.994621
381.847835	0.995292
382.233134	0.995044
382.618371	0.994990
383.003545	0.994841
383.388657	0.993870
383.773706	0.995442
384.158693	0.994741
384.543618	0.994256
384.928480	0.995100
385.313280	0.995138
385.698017	0.995775
386.082692	0.995062
386.467305	0.995104
386.851856	0.994863
387.236344	0.994870
387.620770	0.994057
388.005133	0.995531
388.389435	0.995581
388.773674	0.994745
389.157851	0.995882
389.541965	0.995415
389.926018	0.995256
390.310008	0.995561
390.693936	0.994762
391.077802	0.994978
391.461606	0.995042
391.845348	0.995487
392.229027	0.995275
392.612645	0.995080
392.996200	0.996001
393.379694	0.995139
393.763125	0.995141
394.146494	0.995881
394.529801	0.994728
394.913047	0.995415
395.296230	0.994863
395.679351	0.994813
396.062410	0.993993
396.445408	0.994103
396.828343	0.993126
397.211217	0.993413
397.594028	0.993163
397.976778	0.991425
398.359466	0.990858
398.742092	0.989340
399.124656	0.988010
399.507158	0.987980
399.889598	0.984967
400.271977	0.983874
400.654294	0.981774
401.036549	0.979000
401.418742	0.976190
401.800874	0.972104
402.182944	0.968592
402.564952	0.963910
402.946898	0.961895
403.328783	0.956654
403.710606	0.954068
404.092367	0.945878
404.474067	0.942014
404.855705	0.936902
405.237282	0.933068
405.618797	0.925485
406.000250	0.918370
406.381642	0.912148
406.762972	0.904602
407.144240	0.898798
407.525447	0.892652
407.906593	0.883355
408.287677	0.875106
408.668700	0.871128
409.049661	0.859811
409.430560	0.851056
409.811399	0.846104
410.192176	0.831788
410.572891	0.826077
410.953545	0.813311
411.334138	0.809956
411.714669	0.799329
412.095139	0.795450
412.475547	0.779242
412.855894	0.771988
413.236180	0.762116
413.616405	0.756142
413.996568	0.743109
414.376670	0.737407
414.756711	0.732092
415.136691	0.721148
415.516609	0.707487
415.896466	0.697403
416.276262	0.686001
416.655997	0.679067
417.035670	0.658222
417.415283	0.645064
417.794834	0.640591
418.174324	0.636998
418.553753	0.635938
418.933121	0.614816
419.312428	0.602667
419.691674	0.599677
420.070859	0.583576
420.449983	0.583569
420.829045	0.568468
421.208047	0.570301
421.586988	0.558502
421.965867	0.551762
422.344686	0.536350
422.723444	0.542173
423.102141	0.551721
423.480777	0.523230
423.859352	0.537513
424.237866	0.512428
424.616319	0.509299
424.994712	0.497303
425.373044	0.503024
425.751314	0.488819
426.129524	0.500423
426.507673	0.482289
426.885762	0.473883
427.263789	0.476324
427.641756	0.483713
428.019662	0.472345
428.397508	0.469177
428.775292	0.471018
429.153016	0.461897
429.530679	0.466503
429.908282	0.458605
430.285824	0.467147
430.663305	0.444985
431.040726	0.464673
431.418086	0.464603
431.795385	0.454846
432.172624	0.452714
432.549802	0.453439
432.926920	0.451721
433.303977	0.450220
433.680974	0.446667
434.057910	0.445532
434.434786	0.444667
434.811601	0.446774
435.188355	0.428762
435.565050	0.437811
435.941683	0.439238
436.318257	0.423566
436.694770	0.423524
437.071222	0.421823
437.447614	0.425410
437.823946	0.432604
438.200218	0.421821
438.576429	0.431805
438.952580	0.424013
439.328670	0.421021
439.704700	0.427279
440.080670	0.428941
440.456580	0.409812
440.832429	0.417615
441.208218	0.428517
441.583947	0.418115
441.959616	0.417942
442.335224	0.421870
442.710773	0.412836
443.086261	0.411033
443.461689	0.424874
443.837057	0.414918
444.212365	0.404597
444.587612	0.411569
444.962800	0.401461
445.337927	0.403067
445.712995	0.429176
446.088002	0.391237
446.462949	0.402118
446.837837	0.406043
447.212664	0.395656
447.587431	0.387227
447.962139	0.357350
448.336786	0.317199
448.711374	0.327124
449.085901	0.371001
449.460369	0.375396
449.834776	0.378942
450.209124	0.358087
450.583412	0.351286
450.957640	0.344094
451.331808	0.355228
451.705917	0.378586
452.079965	0.382653
452.453954	0.371335
452.827883	0.378242
453.201752	0.372830
453.575562	0.384266
453.949311	0.373051
454.323001	0.379187
454.696632	0.375076
455.070202	0.367978
455.443713	0.359051
455.817164	0.353962
456.190556	0.350008
456.563888	0.346594
456.937160	0.344589
457.310373	0.361245
457.683526	0.360098
458.056619	0.365895
458.429653	0.366904
458.802628	0.370235
459.175542	0.364024
459.548398	0.346958
459.921194	0.339789
460.293930	0.339657
460.666607	0.317267
461.039224	0.305538
461.411782	0.301458
461.784280	0.300682
462.156719	0.304569
462.529099	0.309292
462.901419	0.325245
463.273680	0.329431
463.645882	0.329265
464.018024	0.334558
464.390106	0.327663
464.762130	0.312624
465.134094	0.295498
465.505999	0.264794
465.877845	0.235449
466.249631	0.222385
466.621358	0.229788
466.993026	0.243871
467.364634	0.249780
467.736184	0.258532
468.107674	0.267248
468.479105	0.266237
468.850477	0.273284
469.221790	0.279741
469.593043	0.290272
469.964238	0.295400
470.335373	0.294361
470.706449	0.292832
471.077467	0.293314
471.448425	0.255652
471.819324	0.231084
472.190164	0.230596
472.560945	0.259237
472.931667	0.281594
473.302330	0.285393
473.672934	0.297506
474.043479	0.285724
474.413965	0.287795
474.784393	0.291115
475.154761	0.286345
475.525070	0.283015
475.895321	0.289155
476.265513	0.283353
476.635645	0.278340
477.005719	0.278260
477.375734	0.275098
477.745691	0.268371
478.115588	0.264574
478.485427	0.258368
478.855207	0.245563
479.224928	0.227895
479.594591	0.216172
479.964194	0.219491
480.333739	0.220599
480.703226	0.222070
481.072653	0.220700
481.442022	0.216366
481.811333	0.212777
482.180584	0.216373
482.549777	0.221490
482.918912	0.224827
483.287988	0.224550
483.657005	0.224193
484.025964	0.230503
484.394864	0.227683
484.763706	0.228495
485.132489	0.233112
485.501213	0.234016
485.869879	0.232374
486.238487	0.235673
486.607036	0.233679
486.975527	0.237976
487.343959	0.233901
487.712333	0.233030
488.080648	0.234334
488.448905	0.233192
488.817104	0.234806
489.185244	0.229435
489.553326	0.226250
489.921350	0.216094
490.289315	0.198740
490.657222	0.193959
491.025070	0.195007
491.392861	0.197021
491.760593	0.202585
492.128267	0.208000
492.495883	0.213991
492.863440	0.220005
493.230939	0.226323
493.598380	0.227323
493.965763	0.229916
494.333088	0.232180
494.700354	0.233667
495.067563	0.232709
495.434713	0.235838
495.801805	0.234146
496.168839	0.235204
496.535815	0.236680
496.902733	0.236522
497.269593	0.238104
497.636395	0.236007
498.003139	0.236394
498.369825	0.239209
498.736453	0.235576
499.103023	0.237075
499.469535	0.236662
499.835989	0.237060
500.202385	0.237938
500.568723	0.240789
500.935003	0.236480
501.301226	0.240539
501.667390	0.234778
502.033497	0.233109
502.399546	0.235859
502.765537	0.237695
503.131470	0.235990
503.497345	0.232515
503.863163	0.241221
504.228923	0.234009
504.594625	0.232932
504.960269	0.238300
505.325856	0.233622
505.691385	0.237709
506.056856	0.234340
506.422270	0.233820
506.787625	0.236564
507.152924	0.233674
507.518164	0.234060
507.883347	0.236049
508.248472	0.237608
508.613540	0.232771
508.978550	0.235231
509.343503	0.235775
509.708398	0.233436
510.073236	0.231003
510.438016	0.231063
510.802738	0.232164
511.167403	0.230591
511.532010	0.233036
511.896561	0.228356
512.261053	0.227109
512.625488	0.229250
512.989866	0.229546
513.354186	0.229810
513.718449	0.231653
514.082655	0.228062
514.446803	0.230002
514.810894	0.227922
515.174927	0.230425
515.538904	0.229976
515.902822	0.226808
516.266684	0.229339
516.630488	0.230512
516.994235	0.228860
517.357925	0.227930
517.721558	0.226203
518.085133	0.225869
518.448651	0.225799
518.812112	0.228109
519.175516	0.227743
519.538863	0.225368
519.902152	0.226888
520.265385	0.223440
520.628560	0.225457
520.991678	0.226155
521.354739	0.224848
521.717743	0.225853
522.080690	0.226677
522.443580	0.223967
522.806413	0.224884
523.169189	0.223928
523.531908	0.222896
523.894569	0.226383
524.257174	0.226813
524.619722	0.224288
524.982213	0.225333
525.344647	0.224384
525.707025	0.225056
526.069345	0.223173
526.431608	0.224822
526.793815	0.222920
527.155964	0.226874
527.518057	0.225752
527.880093	0.227040
528.242072	0.225465
528.603995	0.227564
528.965860	0.229062
529.327669	0.227897
529.689421	0.228635
530.051117	0.229656
530.412755	0.227058
530.774337	0.229695
531.135862	0.230043
531.497331	0.229531
531.858743	0.232195
532.220098	0.229063
532.581396	0.231535
532.942638	0.232011
533.303824	0.232902
533.664953	0.232707
534.026025	0.234543
534.387040	0.232352
534.747999	0.232479
535.108902	0.231161
535.469748	0.236130
535.830537	0.234109
536.191270	0.234538
536.551947	0.233847
536.912567	0.234042
537.273131	0.235987
537.633638	0.235840
537.994089	0.236350
538.354483	0.237334
538.714821	0.234439
539.075103	0.234071
539.435328	0.234940
539.795497	0.238730
540.155609	0.234871
540.515665	0.233179
540.875665	0.239022
541.235609	0.237470
541.595496	0.237561
541.955328	0.234027
542.315102	0.236830
542.674821	0.237902
543.034483	0.237705
543.394090	0.237677
543.753640	0.239296
544.113134	0.234389
544.472571	0.237782
544.831953	0.234654
545.191278	0.238759
545.550548	0.238294
545.909761	0.234706
546.268918	0.235589
546.628019	0.234058
546.987064	0.236663
547.346053	0.238684
547.704986	0.236111
548.063863	0.236758
548.422684	0.237030
548.781449	0.238621
549.140158	0.236130
549.498811	0.239271
549.857408	0.242455
550.215949	0.237127
550.574434	0.240272
550.932864	0.238140
551.291237	0.236893
551.649555	0.238183
552.007817	0.237895
552.366022	0.238654
552.724173	0.238872
553.082267	0.239021
553.440305	0.236058
553.798288	0.240730
554.156215	0.237367
554.514086	0.237613
554.871902	0.240925
555.229661	0.239878
555.587365	0.240457
555.945014	0.243453
556.302606	0.240159
556.660143	0.242683
557.017625	0.239063
557.375050	0.241462
557.732421	0.238170
558.089735	0.240318
558.446994	0.240631
558.804197	0.239661
559.161345	0.239666
559.518437	0.242949
559.875474	0.240958
560.232455	0.240171
560.589381	0.241431
560.946251	0.241391
561.303065	0.239101
561.659825	0.240826
562.016528	0.241916
562.373177	0.244777
562.729770	0.242066
563.086307	0.244262
563.442789	0.241862
563.799216	0.244670
564.155587	0.243768
564.511904	0.244553
564.868164	0.244948
565.224370	0.244750
565.580520	0.246423
565.936615	0.246269
566.292654	0.249214
566.648638	0.246460
567.004567	0.247042
567.360441	0.247854
567.716260	0.250084
568.072023	0.247666
568.427732	0.247802
568.783385	0.251087
569.138982	0.248959
569.494525	0.248634
569.850013	0.251372
570.205445	0.249730
570.560823	0.252382
570.916145	0.254126
571.271412	0.252442
571.626625	0.253800
571.981782	0.254399
572.336884	0.255351
572.691931	0.255035
573.046923	0.256162
573.401860	0.257373
573.756743	0.259218
574.111570	0.257934
574.466342	0.258460
574.821059	0.257955
575.175722	0.260521
575.530330	0.260341
575.884882	0.260845
576.239380	0.262815
576.593823	0.263239
576.948211	0.262422
577.302544	0.265703
577.656823	0.265375
578.011047	0.265369
578.365216	0.266114
578.719330	0.268057
579.073389	0.268080
579.427394	0.269217
579.781344	0.269958
580.135239	0.271863
580.489080	0.271149
580.842866	0.274187
581.196597	0.274027
581.550273	0.272637
581.903895	0.273727
582.257463	0.271928
582.610975	0.275122
582.964434	0.274512
583.317837	0.277178
583.671186	0.277226
584.024481	0.277471
584.377721	0.280140
584.730906	0.280674
585.084037	0.279771
585.437113	0.281753
585.790135	0.281220
586.143103	0.284145
586.496016	0.285267
586.848874	0.282663
587.201679	0.283397
587.554428	0.286566
587.907124	0.285392
588.259765	0.285969
588.612352	0.286240
588.964884	0.290428
589.317362	0.289899
589.669786	0.289864
590.022155	0.288698
590.374470	0.287991
590.726731	0.290039
591.078937	0.294643
591.431090	0.290987
591.783188	0.295199
592.135232	0.295588
592.487222	0.295483
592.839157	0.293786
593.191038	0.295942
593.542866	0.297799
593.894639	0.301467
594.246358	0.299529
594.598022	0.299080
594.949633	0.302708
595.301190	0.303274
595.652692	0.302610
596.004141	0.298698
596.355535	0.306505
596.706876	0.307316
597.058162	0.309489
597.409395	0.306841
597.760573	0.304463
598.111698	0.307616
598.462768	0.308052
598.813785	0.309694
599.164748	0.310712
599.515657	0.311268
599.866511	0.314614
600.217312	0.309742
600.568060	0.315126
600.918753	0.311501
601.269392	0.312135
601.619978	0.315702
601.970510	0.313448
602.320988	0.313415
602.671412	0.310940
603.021783	0.313590
603.372100	0.315202
603.722363	0.314701
604.072572	0.315514
604.422728	0.315426
604.772830	0.317401
605.122878	0.317027
605.472872	0.317506
605.822813	0.315760
606.172701	0.318372
606.522534	0.316029
606.872314	0.315566
607.222041	0.316504
607.571714	0.315203
607.921333	0.316374
608.270899	0.316135
608.620411	0.312927
608.969870	0.316974
609.319276	0.316934
609.668627	0.316763
610.017926	0.315514
610.367171	0.314146
610.716362	0.314220
611.065500	0.314999
611.414585	0.313502
611.763616	0.313927
612.112594	0.314546
612.461518	0.313764
612.810389	0.311626
613.159207	0.314007
613.507971	0.315840
613.856682	0.311624
614.205340	0.312958
614.553945	0.309984
614.902496	0.313828
615.250994	0.311851
615.599439	0.312672
615.947830	0.312014
616.296169	0.313065
616.644454	0.312505
616.992686	0.312680
617.340864	0.310563
617.688990	0.313993
618.037063	0.310483
618.385082	0.312518
618.733048	0.309347
619.080961	0.311644
619.428821	0.311145
619.776628	0.310635
620.124382	0.312807
620.472083	0.313084
620.819731	0.312634
621.167326	0.316095
621.514868	0.315859
621.862357	0.320384
622.209793	0.319711
622.557176	0.321939
622.904506	0.323328
623.251783	0.325330
623.599007	0.327778
623.946179	0.327339
624.293297	0.329305
624.640363	0.333078
624.987376	0.333601
625.334336	0.336054
625.681243	0.338391
626.028097	0.338956
626.374899	0.340152
626.721647	0.340144
627.068343	0.343263
627.414987	0.344560
627.761577	0.346904
628.108115	0.345083
628.454600	0.350091
628.801032	0.347395
629.147412	0.349505
629.493739	0.349796
629.840014	0.353251
630.186236	0.350198
630.532405	0.356133
630.878521	0.353565
631.224585	0.355659
631.570597	0.359180
631.916556	0.357383
632.262462	0.358268
632.608316	0.359981
632.954117	0.361148
633.299866	0.361835
633.645562	0.362037
633.991206	0.366162
634.336797	0.369433
634.682336	0.371262
635.027823	0.373036
635.373257	0.373543
635.718639	0.376984
636.063968	0.376423
636.409245	0.382870
636.754470	0.382663
637.099642	0.384767
637.444762	0.388420
637.789829	0.387540
638.134845	0.391256
638.479808	0.392004
638.824719	0.391295
639.169577	0.395680
639.514383	0.394494
639.859137	0.399010
640.203839	0.398802
640.548489	0.399242
640.893086	0.400797
641.237632	0.402096
641.582125	0.400767
641.926566	0.402597
642.270955	0.402386
642.615292	0.402693
642.959576	0.401765
643.303809	0.402314
643.647990	0.402216
643.992118	0.402795
644.336195	0.406129
644.680219	0.404369
645.024192	0.405555
645.368112	0.398606
645.711981	0.398252
646.055797	0.393000
646.399562	0.395167
646.743274	0.387496
647.086935	0.385062
647.430544	0.384757
647.774101	0.383910
648.117606	0.383507
648.461059	0.384192
648.804460	0.386272
649.147810	0.391624
649.491108	0.393315
649.834354	0.395102
650.177548	0.400508
650.520690	0.405378
650.863781	0.406873
651.206820	0.406215
651.549807	0.410841
651.892742	0.415021
652.235626	0.414283
652.578458	0.415517
652.921238	0.421442
653.263967	0.419005
653.606644	0.422793
653.949269	0.422971
654.291843	0.426961
654.634365	0.423048
654.976836	0.426749
655.319255	0.427011
655.661622	0.428379
656.003938	0.428927
656.346203	0.431270
656.688416	0.429481
657.030577	0.432816
657.372687	0.434491
657.714746	0.435517
658.056753	0.432505
658.398708	0.436368
658.740612	0.437604
659.082465	0.433973
659.424266	0.433881
659.766016	0.433947
660.107715	0.436497
660.449362	0.435545
660.790958	0.435536
661.132503	0.436528
661.473996	0.433696
661.815438	0.435417
662.156829	0.434901
662.498168	0.435857
662.839456	0.437201
663.180693	0.435124
663.521879	0.435047
663.863013	0.436075
664.204097	0.434400
664.545129	0.431182
664.886110	0.431715
665.227040	0.428875
665.567918	0.431446
665.908746	0.429294
666.249522	0.429088
666.590248	0.429959
666.930922	0.428364
667.271545	0.427142
667.612118	0.427463
667.952639	0.429087
668.293109	0.427622
668.633528	0.430207
668.973896	0.430361
669.314213	0.430806
669.654480	0.432187
669.994695	0.432526
670.334859	0.433469
670.674973	0.433575
671.015035	0.434062
671.355047	0.433506
671.695008	0.435298
672.034918	0.436853
672.374777	0.436536
672.714585	0.437176
673.054342	0.437364
673.394049	0.437419
673.733705	0.435032
674.073310	0.436106
674.412864	0.439359
674.752368	0.439724
675.091820	0.439768
675.431223	0.444133
675.770574	0.444054
676.109875	0.446961
676.449125	0.447730
676.788324	0.449386
677.127473	0.454541
677.466571	0.454645
677.805619	0.456349
678.144616	0.457615
678.483562	0.458860
678.822458	0.461790
679.161303	0.462409
679.500098	0.462552
679.838842	0.464774
680.177535	0.464195
680.516179	0.462670
680.854771	0.461647
681.193314	0.455181
681.531805	0.446316
681.870247	0.434735
682.208638	0.426974
682.546978	0.426532
682.885268	0.428574
683.223508	0.434357
683.561697	0.438700
683.899836	0.441183
684.237925	0.444443
684.575963	0.446834
684.913951	0.449933
685.251889	0.445847
685.589776	0.447446
685.927614	0.449703
686.265401	0.444661
686.603137	0.445338
686.940824	0.439839
687.278460	0.438080
687.616046	0.437389
687.953582	0.432489
688.291068	0.433455
688.628504	0.429309
688.965889	0.431282
689.303224	0.435929
689.640510	0.439542
689.977745	0.445603
690.314930	0.453136
690.652065	0.458025
690.989150	0.465089
691.326185	0.471447
691.663170	0.476889
692.000105	0.483206
692.336990	0.490552
692.673825	0.493418
693.010610	0.500415
693.347345	0.505710
693.684030	0.506612
694.020665	0.512314
694.357251	0.521084
694.693786	0.520105
695.030272	0.524261
695.366707	0.527630
695.703093	0.531238
696.039429	0.528504
696.375716	0.530876
696.711952	0.533662
697.048139	0.535537
697.384276	0.537513
697.720363	0.535692
698.056400	0.534577
698.392388	0.540266
698.728326	0.543718
699.064214	0.546011
699.400053	0.546534
699.735842	0.550482
700.071581	0.553160
700.407270	0.556125
700.742910	0.558460
701.078501	0.564921
701.414042	0.566149
701.749533	0.568236
702.084974	0.577533
702.420366	0.569912
702.755709	0.577391
703.091002	0.585181
703.426246	0.578636
703.761440	0.584638
704.096584	0.589494
704.431679	0.586268
704.766725	0.588707
705.101721	0.590312
705.436668	0.586290
705.771565	0.593447
706.106413	0.589401
706.441212	0.584993
706.775961	0.583750
707.110661	0.586863
707.445311	0.582979
707.779913	0.580115
708.114465	0.578635
708.448967	0.575282
708.783421	0.567088
709.117825	0.561839
709.452180	0.562184
709.786485	0.555233
710.120742	0.545656
710.454949	0.547775
710.789107	0.539832
711.123216	0.530594
711.457275	0.532026
711.791286	0.523247
712.125247	0.522638
712.459159	0.533390
712.793023	0.525908
713.126837	0.529693
713.460602	0.530221
713.794318	0.539501
714.127985	0.538380
714.461602	0.548586
714.795171	0.551828
715.128691	0.558943
715.462162	0.567424
715.795584	0.572863
716.128957	0.575688
716.462281	0.581630
716.795556	0.586621
717.128782	0.591556
717.461960	0.599876
717.795088	0.598635
718.128167	0.604861
718.461198	0.613582
718.794180	0.613736
719.127113	0.617426
719.459997	0.620610
719.792833	0.626826
720.125619	0.628903
720.458357	0.634537
720.791046	0.632729
721.123686	0.636314
721.456278	0.644061
721.788821	0.641213
722.121315	0.645283
722.453761	0.649884
722.786158	0.647510
723.118506	0.644171
723.450805	0.651518
723.783056	0.647473
724.115259	0.644317
724.447412	0.644951
724.779518	0.645251
725.111574	0.645369
725.443582	0.640746
725.775542	0.642619
726.107453	0.634733
726.439315	0.634931
726.771129	0.633140
727.102895	0.626398
727.434612	0.619722
727.766281	0.617230
728.097901	0.616695
728.429473	0.616473
728.760996	0.614344
729.092471	0.614993
729.423897	0.618936
729.755276	0.617936
730.086606	0.618271
730.417887	0.611953
730.749120	0.602554
731.080305	0.593837
731.411442	0.589967
731.742530	0.595056
732.073570	0.593973
732.404562	0.587106
732.735506	0.588139
733.066401	0.592402
733.397249	0.601302
733.728048	0.612782
734.058798	0.625986
734.389501	0.636349
734.720156	0.645862
735.050762	0.654497
735.381320	0.655020
735.711831	0.665040
736.042293	0.669176
736.372707	0.664584
736.703073	0.669618
737.033391	0.673096
737.363661	0.668732
737.693883	0.664010
738.024056	0.663077
738.354182	0.663049
738.684260	0.652845
739.014290	0.647935
739.344272	0.649756
739.674207	0.643288
740.004093	0.642462
740.333931	0.642780
740.663722	0.642280
740.993464	0.643189
741.323159	0.646810
741.652806	0.652080
741.982405	0.657382
742.311956	0.660834
742.641460	0.663829
742.970915	0.667017
743.300323	0.675187
743.629683	0.681360
743.958996	0.683367
744.288260	0.687392
744.617477	0.693920
744.946647	0.694370
745.275768	0.700872
745.604842	0.700360
745.933869	0.710208
746.262847	0.710875
746.591778	0.704084
746.920662	0.710575
747.249498	0.717180
747.578286	0.708426
747.907027	0.703953
748.235720	0.704727
748.564365	0.699547
748.892963	0.699831
749.221514	0.702850
749.550017	0.707815
749.878473	0.707175
750.206881	0.713739
750.535242	0.715367
750.863555	0.714899
751.191821	0.716395
751.520039	0.719538
751.848210	0.723610
752.176334	0.716559
752.504411	0.715777
752.832440	0.723262
753.160421	0.727936
753.488356	0.726210
753.816243	0.723155
754.144082	0.732347
754.471875	0.735457
754.799620	0.730247
755.127318	0.732900
755.454969	0.731718
755.782572	0.731488
756.110129	0.736509
756.437638	0.738700
756.765100	0.735527
757.092515	0.733245
757.419882	0.733153
757.747203	0.738729
758.074477	0.737212
758.401703	0.733651
758.728882	0.729800
759.056014	0.727436
759.383099	0.727772
759.710138	0.728386
760.037129	0.725741
760.364073	0.718890
760.690970	0.721239
761.017820	0.726824
761.344623	0.722127
761.671379	0.713563
761.998088	0.701301
762.324751	0.678945
762.651366	0.637202
762.977935	0.570307
763.304456	0.517649
763.630931	0.508634
763.957359	0.547342
764.283740	0.592330
764.610074	0.618904
764.936362	0.651027
765.262602	0.677550
765.588796	0.698279
765.914943	0.716622
766.241044	0.734757
766.567097	0.741356
766.893104	0.750592
767.219064	0.757272
767.544978	0.763485
767.870845	0.777567
768.196665	0.780962
768.522438	0.779117
768.848165	0.780662
769.173846	0.788900
769.499479	0.793715
769.825066	0.798068
770.150607	0.802853
770.476101	0.796804
770.801548	0.798548
771.126949	0.810211
771.452303	0.813897
771.777611	0.813309
772.102872	0.811619
772.428087	0.816817
772.753256	0.821025
773.078378	0.822325
773.403453	0.831920
773.728482	0.835527
774.053465	0.829746
774.378401	0.833438
774.703291	0.842091
775.028135	0.840955
775.352932	0.843174
775.677683	0.845562
776.002388	0.846647
776.327046	0.845125
776.651658	0.848452
776.976224	0.851956
777.300743	0.853353
777.625216	0.854147
777.949643	0.855295
778.274024	0.857016
778.598359	0.858116
778.922647	0.856579
779.246889	0.857822
779.571086	0.860752
779.895236	0.863931
780.219339	0.861857
780.543397	0.858137
780.867409	0.856101
781.191374	0.858432
781.515294	0.860287
781.839167	0.859331
782.162995	0.861979
782.486776	0.859373
782.810511	0.860340
783.134201	0.863950
783.457844	0.862155
783.781441	0.863829
784.104993	0.870681
784.428498	0.870497
784.751958	0.866219
785.075372	0.868838
785.398739	0.872973
785.722061	0.869144
786.045337	0.864754
786.368568	0.868938
786.691752	0.871907
787.014891	0.856761
787.337983	0.847593
787.661030	0.841195
787.984031	0.823067
788.306987	0.810298
788.629897	0.812964
788.952760	0.816493
789.275579	0.820868
789.598351	0.836339
789.921078	0.849229
790.243759	0.851493
790.566395	0.857162
790.888984	0.863171
791.211529	0.868421
791.534027	0.870781
791.856480	0.874252
792.178888	0.879008
792.501249	0.882189
792.823566	0.881835
793.145836	0.882997
793.468062	0.885625
793.790241	0.885570
794.112375	0.882755
794.434464	0.877479
794.756507	0.877679
795.078505	0.877260
795.400457	0.871847
795.722364	0.860334
796.044226	0.852755
796.366042	0.851157
796.687812	0.854457
797.009538	0.851853
797.331218	0.854079
797.652852	0.859238
797.974442	0.863675
798.295986	0.863928
798.617484	0.865882
798.938938	0.870452
799.260346	0.876210
799.581709	0.876995
799.903026	0.880026
800.224299	0.879655
800.545526	0.884837
800.866708	0.889021
801.187845	0.892250
801.508936	0.892758
801.829983	0.889857
802.150984	0.892082
802.471940	0.897779
802.792851	0.896638
803.113717	0.897810
803.434538	0.895008
803.755314	0.898567
804.076045	0.899829
804.396731	0.899881
804.717372	0.898954
805.037967	0.901964
805.358518	0.899155
805.679024	0.896926
805.999485	0.896894
806.319901	0.897048
806.640272	0.897465
806.960598	0.896108
807.280879	0.893301
807.601115	0.891765
807.921306	0.895420
808.241453	0.895871
808.561554	0.893816
808.881611	0.894119
809.201623	0.896621
809.521590	0.895301
809.841513	0.896813
810.161390	0.896284
810.481223	0.898156
810.801011	0.901285
811.120755	0.902548
811.440453	0.902116
811.760107	0.900117
812.079716	0.899835
812.399281	0.903459
812.718801	0.907495
813.038276	0.906918
813.357707	0.906282
813.677093	0.904229
813.996434	0.906775
814.315731	0.909364
814.634983	0.909549
814.954191	0.907932
815.273354	0.904810
815.592473	0.901143
815.911547	0.901389
816.230577	0.898504
816.549562	0.896912
816.868502	0.896550
817.187399	0.894377
817.506250	0.888011
817.825058	0.890444
818.143821	0.885946
818.462539	0.881728
818.781213	0.873273
819.099843	0.861518
819.418429	0.846269
819.736970	0.828643
820.055466	0.808443
820.373919	0.783723
820.692327	0.750935
821.010691	0.715865
821.329011	0.637973
821.647286	0.521871
821.965517	0.408015
822.283704	0.365447
822.601847	0.366538
822.919945	0.402344
823.237999	0.435122
823.556010	0.483038
823.873976	0.538889
824.191897	0.589806
824.509775	0.632364
824.827609	0.678388
825.145398	0.700591
825.463144	0.704541
825.780845	0.687055
826.098502	0.667491
826.416116	0.621602
826.733685	0.578101
827.051210	0.569136
827.368692	0.583099
827.686129	0.621625
828.003522	0.674191
828.320872	0.721934
828.638177	0.766043
828.955439	0.798921
829.272656	0.821788
829.589830	0.838108
829.906960	0.854334
830.224046	0.866699
830.541088	0.877098
830.858086	0.881392
831.175041	0.887892
831.491952	0.887623
831.808819	0.884243
832.125642	0.877159
832.442421	0.861885
832.759157	0.839668
833.075849	0.793803
833.392497	0.730158
833.709101	0.688607
834.025662	0.697959
834.342179	0.729091
834.658653	0.769099
834.975083	0.805604
835.291469	0.829741
835.607811	0.853956
835.924110	0.869961
836.240366	0.886750
836.556578	0.901114
836.872746	0.908326
837.188871	0.915155
837.504952	0.919870
837.820990	0.924281
838.136984	0.926657
838.452935	0.930652
838.768842	0.931784
839.084706	0.924393
839.400526	0.899153
839.716303	0.859611
840.032037	0.835910
840.347727	0.840083
840.663373	0.857700
840.978977	0.880454
841.294537	0.901835
841.610054	0.918655
841.925527	0.926285
842.240957	0.932529
842.556344	0.940534
842.871687	0.946170
843.186987	0.950160
843.502244	0.950259
843.817458	0.952160
844.132629	0.954917
844.447756	0.960483
844.762840	0.961125
845.077881	0.960595
845.392879	0.961282
845.707833	0.963271
846.022745	0.964824
846.337613	0.965334
846.652438	0.966616
846.967221	0.964905
847.281960	0.965080
847.596656	0.968868
847.911309	0.966429
848.225919	0.968296
848.540485	0.969199
848.855009	0.968756
849.169490	0.968582
849.483928	0.969341
849.798323	0.969398
850.112675	0.970329
850.426984	0.969455
850.741251	0.971810
851.055474	0.970458
851.369654	0.967574
851.683792	0.969602
851.997887	0.969891
852.311938	0.970769
852.625947	0.969473
852.939914	0.967429
853.253837	0.969019
853.567718	0.971044
853.881555	0.972590
854.195350	0.969084
854.509103	0.970778
854.822812	0.969950
855.136479	0.969111
855.450103	0.969163
855.763685	0.968991
856.077224	0.969215
856.390720	0.970785
856.704173	0.970986
857.017584	0.968860
857.330953	0.967461
857.644278	0.968514
857.957561	0.968287
858.270802	0.968667
858.584000	0.968363
858.897155	0.966131
859.210268	0.967707
859.523339	0.967984
859.836367	0.969587
860.149352	0.970752
860.462295	0.969720
860.775195	0.970332
861.088054	0.970752
861.400869	0.969613
861.713642	0.969624
862.026373	0.971026
862.339062	0.970459
862.651708	0.968544
862.964312	0.969275
863.276873	0.970176
863.589392	0.968463
863.901869	0.966621
864.214303	0.964636
864.526696	0.964095
864.839045	0.963834
865.151353	0.961496
865.463619	0.962948
865.775842	0.962802
866.088023	0.961592
866.400162	0.963855
866.712258	0.963024
867.024313	0.963537
867.336325	0.963222
867.648296	0.963144
867.960224	0.963077
868.272110	0.961831
868.583954	0.964091
868.895755	0.964399
869.207515	0.962272
869.519233	0.959782
869.830909	0.961714
870.142542	0.962958
870.454134	0.961553
870.765684	0.960868
871.077191	0.958626
871.388657	0.959318
871.700081	0.958588
872.011463	0.958444
872.322803	0.958633
872.634101	0.956710
872.945357	0.955463
873.256571	0.954092
873.567744	0.952747
873.878874	0.953061
874.189963	0.951212
874.501010	0.951343
874.812015	0.949951
875.122979	0.950270
875.433900	0.953555
875.744780	0.954873
876.055618	0.951294
876.366415	0.951171
876.677169	0.950071
876.987882	0.951639
877.298554	0.950108
877.609183	0.948020
877.919771	0.944836
878.230317	0.942193
878.540822	0.939953
878.851285	0.935107
879.161707	0.926807
879.472087	0.914765
879.782425	0.899256
880.092722	0.863759
880.402977	0.811483
880.713191	0.750922
881.023363	0.691181
881.333494	0.656604
881.643583	0.628847
881.953631	0.628546
882.263637	0.657912
882.573602	0.696727
882.883526	0.723425
883.193408	0.746987
883.503248	0.770083
883.813048	0.797661
884.122806	0.826644
884.432522	0.850302
884.742197	0.870189
885.051831	0.880340
885.361424	0.892045
885.670975	0.902955
885.980485	0.913261
886.289954	0.920050
886.599382	0.925471
886.908768	0.928246
887.218113	0.934460
887.527417	0.939355
887.836680	0.942183
888.145901	0.943817
888.455082	0.945788
888.764221	0.950092
889.073319	0.952342
889.382376	0.953547
889.691392	0.953751
890.000366	0.952573
890.309300	0.954011
890.618193	0.953390
890.927044	0.952117
891.235855	0.952228
891.544625	0.951711
891.853353	0.951576
892.162041	0.950623
892.470687	0.942262
892.779293	0.937989
893.087858	0.933755
893.396381	0.925662
893.704864	0.912200
894.013306	0.888744
894.321707	0.862085
894.630068	0.848029
894.938387	0.842375
895.246665	0.842467
895.554903	0.856624
895.863100	0.870960
896.171256	0.887640
896.479371	0.906422
896.787446	0.919191
897.095480	0.924437
897.403473	0.928582
897.711425	0.933410
898.019336	0.940448
898.327207	0.942781
898.635038	0.945185
898.942827	0.946435
899.250576	0.947934
899.558284	0.951864
899.865952	0.954308
900.173579	0.955456
900.481165	0.955350
900.788711	0.960563
901.096216	0.962536
901.403681	0.961917
901.711105	0.962525
902.018489	0.963784
902.325832	0.963014
902.633135	0.961526
902.940397	0.955571
903.247619	0.943827
903.554800	0.917755
903.861941	0.878798
904.169041	0.842221
904.476101	0.823862
904.783121	0.825616
905.090100	0.842645
905.397039	0.863718
905.703938	0.885727
906.010796	0.906630
906.317614	0.922579
906.624391	0.933811
906.931129	0.943850
907.237826	0.952574
907.544483	0.959291
907.851099	0.963740
908.157675	0.968137
908.464211	0.971191
908.770707	0.972938
909.077163	0.974768
909.383578	0.974581
909.689954	0.975784
909.996289	0.975201
910.302584	0.978122
910.608839	0.979129
910.915054	0.978430
911.221229	0.978531
911.527363	0.975547
911.833458	0.977758
912.139513	0.976294
912.445527	0.975018
912.751502	0.974233
913.057436	0.973442
913.363331	0.970444
913.669186	0.966798
913.975000	0.962320
914.280775	0.955607
914.586510	0.947813
914.892205	0.934929
915.197859	0.913875
915.503475	0.886397
915.809050	0.866562
916.114585	0.860412
916.420081	0.858306
916.725536	0.854937
917.030952	0.864396
917.336328	0.875969
917.641665	0.891339
917.946961	0.907303
918.252218	0.918464
918.557435	0.928209
918.862612	0.936749
919.167750	0.942270
919.472848	0.947241
919.777906	0.953490
920.082925	0.958007
920.387904	0.961178
920.692843	0.962937
920.997743	0.963875
921.302603	0.967055
921.607423	0.968920
921.912204	0.971563
922.216946	0.972796
922.521647	0.974369
922.826310	0.974211
923.130932	0.977036
923.435516	0.978814
923.740059	0.980848
924.044564	0.978986
924.349028	0.980782
924.653454	0.983474
924.957840	0.986167
925.262186	0.984449
925.566493	0.983658
925.870761	0.985021
926.174989	0.986309
926.479178	0.988958
926.783328	0.988940
927.087438	0.988187
927.391509	0.987916
927.695541	0.991323
927.999533	0.988745
928.303486	0.990089
928.607400	0.991859
928.911275	0.989032
929.215110	0.990152
929.518906	0.992082
929.822663	0.989902
930.126381	0.990495
930.430060	0.990592
930.733699	0.990115
931.037299	0.990669
931.340861	0.990693
931.644383	0.990576
931.947866	0.990041
932.251309	0.990338
932.554714	0.992131
932.858080	0.990406
933.161407	0.990901
933.464694	0.990525
933.767943	0.989834
934.071153	0.991003
934.374323	0.992127
934.677455	0.991104
934.980548	0.991125
935.283602	0.991172
935.586617	0.992111
935.889593	0.991156
936.192530	0.991591
936.495428	0.991540
936.798287	0.989913
937.101108	0.991019
937.403890	0.988917
937.706632	0.988972
938.009336	0.987164
938.312002	0.986262
938.614628	0.985344
938.917216	0.983004
939.219765	0.981753
939.522275	0.982220
939.824747	0.983195
940.127179	0.983132
940.429573	0.985140
940.731929	0.984876
941.034246	0.984327
941.336524	0.984779
941.638763	0.986587
941.940964	0.987594
942.243126	0.987633
942.545250	0.987741
942.847335	0.988154
943.149381	0.988497
943.451389	0.988684
943.753359	0.987869
944.055290	0.990835
944.357182	0.990582
944.659036	0.988168
944.960851	0.989773
945.262628	0.991308
945.564367	0.990931
945.866067	0.990319
946.167729	0.990502
946.469352	0.989200
946.770937	0.988229
947.072484	0.991260
947.373992	0.990175
947.675462	0.990705
947.976893	0.990573
948.278286	0.990989
948.579641	0.991575
948.880958	0.991466
949.182236	0.991583
949.483476	0.991047
949.784678	0.991114
950.085841	0.991397
950.386967	0.991829
950.688054	0.991651
950.989103	0.990649
951.290114	0.989390
951.591087	0.988843
951.892021	0.990228
952.192917	0.989727
952.493776	0.989155
952.794596	0.988633
953.095378	0.988774
953.396122	0.988594
953.696828	0.988161
953.997496	0.990123
954.298126	0.991140
954.598718	0.990860
954.899272	0.991193
955.199788	0.991294
955.500266	0.991050
955.800706	0.993821
956.101108	0.993556
956.401472	0.994207
956.701798	0.993745
957.002087	0.992822
957.302337	0.994060
957.602550	0.996134
957.902724	0.995239
958.202861	0.995229
958.502960	0.996184
958.803022	0.993829
959.103045	0.996293
959.403031	0.996235
959.702979	0.994925
960.002889	0.997093
960.302762	0.994933
960.602596	0.995978
960.902393	0.996241
961.202153	0.997484
961.501875	0.997167
961.801559	0.996900
962.101205	0.995433
962.400814	0.995952
962.700385	0.996977
962.999918	0.996534
963.299414	0.997311
963.598873	0.996588
963.898293	0.996607
964.197677	0.996016
964.497022	0.997053
964.796331	0.997795
965.095601	0.996255
965.394835	0.997396
965.694030	0.996748
965.993189	0.997532
966.292309	0.996429
966.591393	0.998406
966.890439	0.998846
967.189447	0.996700
967.488419	0.998845
967.787353	0.996102
968.086249	0.996847
968.385108	0.997064
968.683930	0.997819
968.982714	0.997404
969.281462	0.997802
969.580172	0.996407
969.878844	0.997933
970.177480	0.997377
970.476078	0.997949
970.774639	0.997063
971.073162	0.997915
971.371649	0.997010
971.670098	0.996579
971.968510	0.999110
972.266885	0.995623
972.565223	0.996014
972.863524	0.995842
973.161788	0.997201
973.460014	0.997419
973.758204	0.996002
974.056356	0.996666
974.354471	0.995502
974.652550	0.997025
974.950591	0.995833
975.248595	0.997416
975.546563	0.997002
975.844493	0.998490
976.142386	0.997389
976.440243	0.997905
976.738062	0.998706
977.035845	0.997941
977.333590	0.997344
977.631299	0.997529
977.928971	0.997066
978.226606	0.997814
978.524204	0.995892
978.821765	0.998696
979.119290	0.996840
979.416777	0.997519
979.714228	0.998065
980.011642	0.996216
980.309020	0.998003
980.606360	0.996659
980.903664	0.998404
981.200931	0.996164
981.498162	0.995224
981.795356	0.995756
982.092513	0.994464
982.389633	0.994070
982.686717	0.992354
982.983764	0.992469
983.280775	0.991162
983.577749	0.991112
983.874686	0.991305
984.171587	0.991780
984.468451	0.995399
984.765279	0.994242
985.062070	0.995073
985.358824	0.995539
985.655543	0.994677
985.952224	0.996974
986.248869	0.997317
986.545478	0.997119
986.842050	0.999470
987.138586	0.995739
987.435086	0.998799
987.731549	0.999147
988.027975	0.998496
988.324366	0.997599
988.620719	0.997801
988.917037	0.996201
989.213318	0.997894
989.509563	0.998697
989.805772	0.999431
990.101944	0.998865
990.398080	0.998351
990.694180	0.999195
990.990244	0.998740
991.286271	0.997995
991.582262	0.999292
991.878217	0.997173
992.174136	0.998794
992.470019	0.999099
992.765865	0.998540
993.061676	0.999076
993.357450	0.997754
993.653188	0.997933
993.948890	0.998346
994.244556	0.997990
994.540186	0.997949
994.835780	0.997164
995.131337	0.997643
995.426859	0.996527
995.722345	0.998261
996.017795	0.996994
996.313208	0.997861
996.608586	0.995855
996.903928	0.997541
997.199234	0.996885
997.494504	0.996857
997.789738	0.996491
998.084936	0.997059
998.380099	0.998016
998.675225	0.998317
998.970316	0.999103
999.265371	0.997995
999.560390	0.999170
999.855373	0.998891
1000.150320	0.998798
1000.445232	0.998863
1000.740108	0.997363
1001.034948	0.998681
1001.329752	0.999370
1001.624521	0.998721
1001.919254	0.998674
1002.213951	0.997634
1002.508613	0.998204
1002.803239	0.999830
1003.097829	0.998923
1003.392384	0.999520
1003.686903	0.998153
1003.981386	0.999505
1004.275834	0.999702
1004.570246	0.999291
1004.864623	1.000281
1005.158964	1.000139
1005.453270	0.998936
1005.747540	0.998428
1006.041775	0.999337
1006.335974	0.999661
1006.630138	0.999552
1006.924266	1.000114
1007.218359	1.001195
1007.512416	0.999959
1007.806438	0.998979
1008.100425	1.000658
1008.394376	0.999245
1008.688292	0.999782
1008.982172	0.999991
1009.276017	1.000358
1009.569827	0.998363
1009.863602	0.999239
1010.157341	1.000239
1010.451045	1.000628
1010.744714	1.000640
1011.038347	0.999388
1011.331945	0.999126
1011.625508	0.998853
1011.919036	0.999565
1012.212528	0.998677
1012.505986	0.998994
1012.799408	0.999380
1013.092795	1.000014
1013.386147	1.000583
1013.679464	0.999357
1013.972745	0.998103
1014.265992	0.997159
1014.559204	0.999535
1014.852380	0.999729
1015.145521	0.998775
1015.438628	0.999391
1015.731699	0.999237
1016.024736	0.998813
1016.317737	0.999997
1016.610703	0.999656
1016.903635	0.999770
1017.196531	0.999092
1017.489393	1.000429
1017.782219	0.998799
1018.075011	0.999394
1018.367768	0.998793
1018.660490	1.000842
1018.953177	1.000842
1019.245829	1.000842
