Dividing Wavelength (nm)	Counts (n)	Blue Motor Position (mm): 0.000000	Red Motor Position (mm): 25.900000	
326.493990	1.000057
326.888308	1.000057
327.282561	1.000057
327.676750	0.999745
328.070874	0.998453
328.464933	1.000472
328.858929	0.999396
329.252859	0.999846
329.646726	0.998543
330.040528	0.999018
330.434265	0.998496
330.827938	1.000664
331.221547	0.999515
331.615091	0.999987
332.008571	0.999968
332.401986	0.998998
332.795338	1.000102
333.188625	0.998626
333.581847	1.000895
333.975006	0.998830
334.368100	0.999451
334.761129	0.999236
335.154095	1.000464
335.546996	0.997941
335.939833	0.993490
336.332606	0.993948
336.725315	0.995140
337.117960	0.995465
337.510540	0.994576
337.903056	0.994559
338.295508	0.993919
338.687896	0.994647
339.080220	0.995209
339.472480	0.994451
339.864676	0.993805
340.256807	0.994843
340.648875	0.995518
341.040879	0.994306
341.432818	0.994915
341.824694	0.993943
342.216506	0.995077
342.608253	0.995370
342.999937	0.992824
343.391557	0.994607
343.783113	0.993574
344.174605	0.992902
344.566033	0.993976
344.957397	0.993314
345.348697	0.994010
345.739934	0.994361
346.131106	0.994878
346.522215	0.993180
346.913260	0.994322
347.304241	0.995169
347.695159	0.993413
348.086012	0.994289
348.476802	0.993667
348.867528	0.994754
349.258191	0.992565
349.648789	0.995208
350.039324	0.994380
350.429796	0.994989
350.820203	0.994600
351.210548	0.995559
351.600828	0.994195
351.991045	0.994436
352.381198	0.993686
352.771288	0.995023
353.161314	0.993748
353.551276	0.994259
353.941175	0.994534
354.331010	0.993753
354.720782	0.995872
355.110490	0.992980
355.500135	0.995647
355.889717	0.992906
356.279235	0.993364
356.668689	0.994889
357.058080	0.994839
357.447408	0.995701
357.836672	0.994932
358.225873	0.995146
358.615010	0.994406
359.004084	0.995086
359.393095	0.994197
359.782043	0.993948
360.170927	0.995397
360.559748	0.996083
360.948505	0.993597
361.337199	0.994981
361.725830	0.994747
362.114398	0.993799
362.502903	0.994696
362.891344	0.994898
363.279722	0.993355
363.668037	0.994311
364.056289	0.994264
364.444478	0.995791
364.832603	0.995108
365.220665	0.993556
365.608665	0.993815
365.996601	0.995922
366.384474	0.994642
366.772284	0.993766
367.160031	0.992614
367.547715	0.993273
367.935336	0.993975
368.322893	0.993683
368.710388	0.992844
369.097820	0.994818
369.485189	0.994373
369.872495	0.994071
370.259738	0.992463
370.646918	0.995552
371.034035	0.995206
371.421090	0.994936
371.808081	0.993786
372.195010	0.995367
372.581875	0.995040
372.968678	0.994574
373.355418	0.994710
373.742096	0.994386
374.128710	0.996134
374.515262	0.993940
374.901751	0.995859
375.288177	0.995348
375.674540	0.995749
376.060841	0.995325
376.447079	0.996581
376.833254	0.995082
377.219367	0.995075
377.605417	0.996725
377.991404	0.995591
378.377329	0.995256
378.763191	0.994744
379.148991	0.995625
379.534727	0.994255
379.920402	0.994946
380.306013	0.996087
380.691563	0.996693
381.077049	0.995977
381.462474	0.996446
381.847835	0.994995
382.233134	0.995787
382.618371	0.996191
383.003545	0.996121
383.388657	0.995799
383.773706	0.996092
384.158693	0.995156
384.543618	0.996501
384.928480	0.997080
385.313280	0.996546
385.698017	0.996199
386.082692	0.996559
386.467305	0.994782
386.851856	0.996600
387.236344	0.995699
387.620770	0.996249
388.005133	0.997460
388.389435	0.996936
388.773674	0.996266
389.157851	0.996953
389.541965	0.995781
389.926018	0.996244
390.310008	0.998052
390.693936	0.996126
391.077802	0.997496
391.461606	0.996468
391.845348	0.997102
392.229027	0.997359
392.612645	0.995058
392.996200	0.998241
393.379694	0.996908
393.763125	0.997525
394.146494	0.997246
394.529801	0.996550
394.913047	0.998175
395.296230	0.996877
395.679351	0.996971
396.062410	0.996939
396.445408	0.996869
396.828343	0.998318
397.211217	0.996850
397.594028	0.997252
397.976778	0.996066
398.359466	0.996858
398.742092	0.996589
399.124656	0.996252
399.507158	0.997102
399.889598	0.997368
400.271977	0.997704
400.654294	0.997233
401.036549	0.997393
401.418742	0.997784
401.800874	0.996467
402.182944	0.996519
402.564952	0.997072
402.946898	0.997572
403.328783	0.997411
403.710606	0.997360
404.092367	0.996849
404.474067	0.997070
404.855705	0.997309
405.237282	0.997455
405.618797	0.996906
406.000250	0.996634
406.381642	0.997799
406.762972	0.997015
407.144240	0.998769
407.525447	0.997192
407.906593	0.997932
408.287677	0.997089
408.668700	0.997671
409.049661	0.996214
409.430560	0.996815
409.811399	0.996299
410.192176	0.997095
410.572891	0.996938
410.953545	0.997694
411.334138	0.996329
411.714669	0.997883
412.095139	0.996848
412.475547	0.997714
412.855894	0.997345
413.236180	0.997608
413.616405	0.997461
413.996568	0.998333
414.376670	0.997122
414.756711	0.996873
415.136691	0.996864
415.516609	0.997047
415.896466	0.997062
416.276262	0.995727
416.655997	0.997371
417.035670	0.997031
417.415283	0.997757
417.794834	0.997957
418.174324	0.997771
418.553753	0.998200
418.933121	0.997385
419.312428	0.997394
419.691674	0.997378
420.070859	0.997828
420.449983	0.996706
420.829045	0.997245
421.208047	0.997720
421.586988	0.998535
421.965867	0.997396
422.344686	0.998479
422.723444	0.997326
423.102141	0.997294
423.480777	0.997257
423.859352	0.996489
424.237866	0.997167
424.616319	0.997430
424.994712	0.998010
425.373044	0.997919
425.751314	0.997689
426.129524	0.996674
426.507673	0.997468
426.885762	0.998012
427.263789	0.997380
427.641756	0.997764
428.019662	0.997838
428.397508	0.996930
428.775292	0.996170
429.153016	0.997168
429.530679	0.997268
429.908282	0.998364
430.285824	0.996772
430.663305	0.997025
431.040726	0.996570
431.418086	0.997914
431.795385	0.997624
432.172624	0.996960
432.549802	0.997368
432.926920	0.996808
433.303977	0.996424
433.680974	0.997155
434.057910	0.995959
434.434786	0.996812
434.811601	0.996918
435.188355	0.995671
435.565050	0.995559
435.941683	0.994927
436.318257	0.996379
436.694770	0.995227
437.071222	0.995570
437.447614	0.994529
437.823946	0.994727
438.200218	0.994883
438.576429	0.993269
438.952580	0.992922
439.328670	0.991808
439.704700	0.992143
440.080670	0.990725
440.456580	0.989304
440.832429	0.988683
441.208218	0.988133
441.583947	0.987033
441.959616	0.986022
442.335224	0.984691
442.710773	0.983620
443.086261	0.980841
443.461689	0.979757
443.837057	0.977821
444.212365	0.976129
444.587612	0.973871
444.962800	0.971505
445.337927	0.970392
445.712995	0.969049
446.088002	0.965120
446.462949	0.963833
446.837837	0.961186
447.212664	0.958897
447.587431	0.954661
447.962139	0.948124
448.336786	0.941313
448.711374	0.939533
449.085901	0.940250
449.460369	0.938025
449.834776	0.934061
450.209124	0.928052
450.583412	0.921164
450.957640	0.917898
451.331808	0.914920
451.705917	0.913254
452.079965	0.909109
452.453954	0.902265
452.827883	0.899137
453.201752	0.893958
453.575562	0.890615
453.949311	0.882051
454.323001	0.878022
454.696632	0.872196
455.070202	0.863525
455.443713	0.856276
455.817164	0.849094
456.190556	0.841624
456.563888	0.833426
456.937160	0.827133
457.310373	0.825053
457.683526	0.817922
458.056619	0.812916
458.429653	0.805865
458.802628	0.799950
459.175542	0.790665
459.548398	0.777653
459.921194	0.766880
460.293930	0.759890
460.666607	0.740564
461.039224	0.727908
461.411782	0.719447
461.784280	0.710781
462.156719	0.705260
462.529099	0.698635
462.901419	0.697080
463.273680	0.690466
463.645882	0.682644
464.018024	0.676327
464.390106	0.664910
464.762130	0.649256
465.134094	0.631917
465.505999	0.608954
465.877845	0.585084
466.249631	0.570507
466.621358	0.564955
466.993026	0.562414
467.364634	0.556570
467.736184	0.553391
468.107674	0.549798
468.479105	0.538840
468.850477	0.536966
469.221790	0.532641
469.593043	0.530857
469.964238	0.524745
470.335373	0.516693
470.706449	0.507903
471.077467	0.501615
471.448425	0.468140
471.819324	0.444128
472.190164	0.437167
472.560945	0.450537
472.931667	0.458607
473.302330	0.455421
473.672934	0.458037
474.043479	0.441750
474.413965	0.437742
474.784393	0.433961
475.154761	0.424075
475.525070	0.415243
475.895321	0.415365
476.265513	0.404764
476.635645	0.396008
477.005719	0.390300
477.375734	0.382531
477.745691	0.372010
478.115588	0.364085
478.485427	0.353817
478.855207	0.338890
479.224928	0.320013
479.594591	0.305901
479.964194	0.303327
480.333739	0.299617
480.703226	0.295689
481.072653	0.290941
481.442022	0.283962
481.811333	0.277530
482.180584	0.277016
482.549777	0.277805
482.918912	0.278156
483.287988	0.274849
483.657005	0.271550
484.025964	0.274786
484.394864	0.269202
484.763706	0.267029
485.132489	0.269556
485.501213	0.267937
485.869879	0.264842
486.238487	0.265617
486.607036	0.262037
486.975527	0.264079
487.343959	0.258721
487.712333	0.256415
488.080648	0.256164
488.448905	0.253868
488.817104	0.254219
489.185244	0.247744
489.553326	0.243329
489.921350	0.232700
490.289315	0.214392
490.657222	0.208916
491.025070	0.209297
491.392861	0.210472
491.760593	0.215232
492.128267	0.220064
492.495883	0.224930
492.863440	0.230285
493.230939	0.236446
493.598380	0.237300
493.965763	0.238951
494.333088	0.240790
494.700354	0.241899
495.067563	0.240377
495.434713	0.243305
495.801805	0.241033
496.168839	0.242174
496.535815	0.243300
496.902733	0.242978
497.269593	0.244504
497.636395	0.242153
498.003139	0.242135
498.369825	0.244936
498.736453	0.241282
499.103023	0.242529
499.469535	0.241630
499.835989	0.241936
500.202385	0.242598
500.568723	0.245602
500.935003	0.240790
501.301226	0.244880
501.667390	0.239115
502.033497	0.237528
502.399546	0.239963
502.765537	0.241530
503.131470	0.240121
503.497345	0.236425
503.863163	0.245090
504.228923	0.238023
504.594625	0.236642
504.960269	0.241949
505.325856	0.237391
505.691385	0.241554
506.056856	0.238196
506.422270	0.237341
506.787625	0.239852
507.152924	0.237302
507.518164	0.237657
507.883347	0.239317
508.248472	0.240863
508.613540	0.235881
508.978550	0.238460
509.343503	0.238509
509.708398	0.236346
510.073236	0.234167
510.438016	0.233923
510.802738	0.234834
511.167403	0.233804
511.532010	0.236062
511.896561	0.231118
512.261053	0.230009
512.625488	0.231972
512.989866	0.232242
513.354186	0.232387
513.718449	0.234296
514.082655	0.230957
514.446803	0.232685
514.810894	0.230725
515.174927	0.233114
515.538904	0.232606
515.902822	0.229465
516.266684	0.232051
516.630488	0.233093
516.994235	0.231640
517.357925	0.230700
517.721558	0.228855
518.085133	0.228202
518.448651	0.228317
518.812112	0.230773
519.175516	0.230149
519.538863	0.228117
519.902152	0.229500
520.265385	0.226239
520.628560	0.228072
520.991678	0.228531
521.354739	0.227392
521.717743	0.228749
522.080690	0.229092
522.443580	0.226388
522.806413	0.227614
523.169189	0.226740
523.531908	0.225244
523.894569	0.229178
524.257174	0.229126
524.619722	0.226829
524.982213	0.227871
525.344647	0.226960
525.707025	0.227666
526.069345	0.225673
526.431608	0.227603
526.793815	0.225675
527.155964	0.229382
527.518057	0.228687
527.880093	0.229646
528.242072	0.228037
528.603995	0.230016
528.965860	0.231526
529.327669	0.230411
529.689421	0.231381
530.051117	0.232291
530.412755	0.230039
530.774337	0.232306
531.135862	0.232580
531.497331	0.232077
531.858743	0.234867
532.220098	0.231585
532.581396	0.234145
532.942638	0.234646
533.303824	0.235602
533.664953	0.235128
534.026025	0.236842
534.387040	0.234813
534.747999	0.234865
535.108902	0.233705
535.469748	0.238805
535.830537	0.236507
536.191270	0.237122
536.551947	0.236557
536.912567	0.236571
537.273131	0.238358
537.633638	0.238250
537.994089	0.238637
538.354483	0.239615
538.714821	0.236941
539.075103	0.236690
539.435328	0.237503
539.795497	0.240879
540.155609	0.237644
540.515665	0.235959
540.875665	0.241418
541.235609	0.240017
541.595496	0.240198
541.955328	0.236759
542.315102	0.239530
542.674821	0.240394
543.034483	0.240415
543.394090	0.239982
543.753640	0.241982
544.113134	0.237196
544.472571	0.240293
544.831953	0.237120
545.191278	0.241386
545.550548	0.241033
545.909761	0.237571
546.268918	0.238015
546.628019	0.236576
546.987064	0.239495
547.346053	0.241228
547.704986	0.239118
548.063863	0.239534
548.422684	0.239653
548.781449	0.241542
549.140158	0.239215
549.498811	0.241960
549.857408	0.244802
550.215949	0.239830
550.574434	0.243032
550.932864	0.240735
551.291237	0.239133
551.649555	0.240565
552.007817	0.240487
552.366022	0.241240
552.724173	0.241507
553.082267	0.241700
553.440305	0.238741
553.798288	0.243249
554.156215	0.239783
554.514086	0.240594
554.871902	0.243736
555.229661	0.242840
555.587365	0.243387
555.945014	0.246085
556.302606	0.242946
556.660143	0.245504
557.017625	0.242082
557.375050	0.244067
557.732421	0.241222
558.089735	0.243440
558.446994	0.243121
558.804197	0.242509
559.161345	0.242398
559.518437	0.245943
559.875474	0.243543
560.232455	0.243093
560.589381	0.244068
560.946251	0.244197
561.303065	0.241936
561.659825	0.243426
562.016528	0.244748
562.373177	0.247591
562.729770	0.244839
563.086307	0.246855
563.442789	0.244665
563.799216	0.247698
564.155587	0.246438
564.511904	0.247378
564.868164	0.247834
565.224370	0.247444
565.580520	0.249233
565.936615	0.249085
566.292654	0.252088
566.648638	0.248934
567.004567	0.250057
567.360441	0.250457
567.716260	0.252667
568.072023	0.250265
568.427732	0.250892
568.783385	0.253877
569.138982	0.251664
569.494525	0.251260
569.850013	0.254133
570.205445	0.252668
570.560823	0.255176
570.916145	0.257269
571.271412	0.255377
571.626625	0.256730
571.981782	0.257334
572.336884	0.258295
572.691931	0.257971
573.046923	0.259230
573.401860	0.260462
573.756743	0.262215
574.111570	0.260947
574.466342	0.261389
574.821059	0.260471
575.175722	0.263289
575.530330	0.263285
575.884882	0.263427
576.239380	0.265331
576.593823	0.265980
576.948211	0.265393
577.302544	0.268787
577.656823	0.268053
578.011047	0.268459
578.365216	0.269121
578.719330	0.270990
579.073389	0.270902
579.427394	0.272176
579.781344	0.272961
580.135239	0.274096
580.489080	0.274070
580.842866	0.276748
581.196597	0.277130
581.550273	0.275408
581.903895	0.276663
582.257463	0.274410
582.610975	0.278150
582.964434	0.277315
583.317837	0.280064
583.671186	0.280432
584.024481	0.280342
584.377721	0.282795
584.730906	0.283450
585.084037	0.282739
585.437113	0.284289
585.790135	0.283858
586.143103	0.286840
586.496016	0.288209
586.848874	0.285477
587.201679	0.286283
587.554428	0.289354
587.907124	0.288328
588.259765	0.288620
588.612352	0.289565
588.964884	0.293059
589.317362	0.292983
589.669786	0.292629
590.022155	0.291421
590.374470	0.290406
590.726731	0.292596
591.078937	0.297548
591.431090	0.293825
591.783188	0.297837
592.135232	0.297970
592.487222	0.298137
592.839157	0.296401
593.191038	0.298980
593.542866	0.300481
593.894639	0.304155
594.246358	0.302083
594.598022	0.301647
594.949633	0.304992
595.301190	0.306198
595.652692	0.305233
596.004141	0.301709
596.355535	0.309299
596.706876	0.309753
597.058162	0.312245
597.409395	0.309929
597.760573	0.307422
598.111698	0.310462
598.462768	0.311053
598.813785	0.312485
599.164748	0.313714
599.515657	0.313999
599.866511	0.317581
600.217312	0.312718
600.568060	0.317955
600.918753	0.314599
601.269392	0.315198
601.619978	0.318463
601.970510	0.316144
602.320988	0.316256
602.671412	0.313849
603.021783	0.316347
603.372100	0.317809
603.722363	0.317387
604.072572	0.318591
604.422728	0.318116
604.772830	0.320410
605.122878	0.319714
605.472872	0.320354
605.822813	0.318896
606.172701	0.321439
606.522534	0.318622
606.872314	0.318445
607.222041	0.319872
607.571714	0.317906
607.921333	0.319151
608.270899	0.318959
608.620411	0.315737
608.969870	0.319337
609.319276	0.319724
609.668627	0.319799
610.017926	0.317908
610.367171	0.316598
610.716362	0.317540
611.065500	0.317807
611.414585	0.316514
611.763616	0.316849
612.112594	0.317736
612.461518	0.317236
612.810389	0.314762
613.159207	0.317050
613.507971	0.318727
613.856682	0.314521
614.205340	0.316152
614.553945	0.312769
614.902496	0.316743
615.250994	0.314667
615.599439	0.315339
615.947830	0.315063
616.296169	0.315765
616.644454	0.314977
616.992686	0.315406
617.340864	0.313365
617.688990	0.316916
618.037063	0.313588
618.385082	0.315491
618.733048	0.312059
619.080961	0.314497
619.428821	0.313829
619.776628	0.313449
620.124382	0.315614
620.472083	0.315871
620.819731	0.315195
621.167326	0.318990
621.514868	0.318664
621.862357	0.323432
622.209793	0.322849
622.557176	0.325021
622.904506	0.325825
623.251783	0.328281
623.599007	0.330276
623.946179	0.330194
624.293297	0.332131
624.640363	0.335669
624.987376	0.336477
625.334336	0.338828
625.681243	0.341123
626.028097	0.341675
626.374899	0.342722
626.721647	0.343095
627.068343	0.346286
627.414987	0.347583
627.761577	0.349526
628.108115	0.347937
628.454600	0.352726
628.801032	0.350021
629.147412	0.352329
629.493739	0.352425
629.840014	0.355608
630.186236	0.353341
630.532405	0.358531
630.878521	0.355896
631.224585	0.358434
631.570597	0.362063
631.916556	0.360219
632.262462	0.360971
632.608316	0.362615
632.954117	0.363301
633.299866	0.364300
633.645562	0.364775
633.991206	0.368838
634.336797	0.371787
634.682336	0.374024
635.027823	0.375624
635.373257	0.376598
635.718639	0.379747
636.063968	0.379262
636.409245	0.384842
636.754470	0.385373
637.099642	0.387960
637.444762	0.390781
637.789829	0.390518
638.134845	0.393580
638.479808	0.394509
638.824719	0.394269
639.169577	0.398562
639.514383	0.396684
639.859137	0.401549
640.203839	0.401227
640.548489	0.401798
640.893086	0.403278
641.237632	0.404781
641.582125	0.403502
641.926566	0.404167
642.270955	0.405185
642.615292	0.405283
642.959576	0.404535
643.303809	0.405086
643.647990	0.404254
643.992118	0.405246
644.336195	0.408516
644.680219	0.407069
645.024192	0.407665
645.368112	0.401431
645.711981	0.400378
646.055797	0.395719
646.399562	0.398215
646.743274	0.389913
647.086935	0.387316
647.430544	0.387238
647.774101	0.386425
648.117606	0.386422
648.461059	0.386757
648.804460	0.389137
649.147810	0.394179
649.491108	0.395986
649.834354	0.397584
650.177548	0.402937
650.520690	0.407977
650.863781	0.409530
651.206820	0.408169
651.549807	0.413367
651.892742	0.416850
652.235626	0.417022
652.578458	0.417943
652.921238	0.423550
653.263967	0.421655
653.606644	0.425473
653.949269	0.425189
654.291843	0.429466
654.634365	0.425611
654.976836	0.428949
655.319255	0.429099
655.661622	0.431294
656.003938	0.431055
656.346203	0.433925
656.688416	0.431403
657.030577	0.435153
657.372687	0.436960
657.714746	0.437584
658.056753	0.435207
658.398708	0.439078
658.740612	0.439786
659.082465	0.435895
659.424266	0.436387
659.766016	0.436153
660.107715	0.438470
660.449362	0.437282
660.790958	0.438199
661.132503	0.438941
661.473996	0.436469
661.815438	0.437342
662.156829	0.437392
662.498168	0.438023
662.839456	0.439239
663.180693	0.437262
663.521879	0.437004
663.863013	0.437907
664.204097	0.437019
664.545129	0.433839
664.886110	0.434187
665.227040	0.431180
665.567918	0.433797
665.908746	0.431899
666.249522	0.431649
666.590248	0.432343
666.930922	0.430886
667.271545	0.429493
667.612118	0.430165
667.952639	0.431618
668.293109	0.430360
668.633528	0.433190
668.973896	0.432629
669.314213	0.432831
669.654480	0.434790
669.994695	0.435013
670.334859	0.435934
670.674973	0.436096
671.015035	0.436539
671.355047	0.436478
671.695008	0.437079
672.034918	0.439189
672.374777	0.438625
672.714585	0.439339
673.054342	0.439608
673.394049	0.440166
673.733705	0.437154
674.073310	0.438342
674.412864	0.442025
674.752368	0.442084
675.091820	0.441986
675.431223	0.446429
675.770574	0.446240
676.109875	0.449333
676.449125	0.449501
676.788324	0.451644
677.127473	0.457375
677.466571	0.456702
677.805619	0.458398
678.144616	0.459727
678.483562	0.460967
678.822458	0.463652
679.161303	0.464907
679.500098	0.465296
679.838842	0.466955
680.177535	0.466245
680.516179	0.465149
680.854771	0.463685
681.193314	0.457468
681.531805	0.448883
681.870247	0.437173
682.208638	0.429742
682.546978	0.428788
682.885268	0.430751
683.223508	0.436335
683.561697	0.440723
683.899836	0.443360
684.237925	0.446794
684.575963	0.448457
684.913951	0.452570
685.251889	0.447994
685.589776	0.449681
685.927614	0.452753
686.265401	0.446501
686.603137	0.448425
686.940824	0.442635
687.278460	0.440710
687.616046	0.439555
687.953582	0.434443
688.291068	0.435878
688.628504	0.431635
688.965889	0.433850
689.303224	0.438292
689.640510	0.441659
689.977745	0.447316
690.314930	0.455906
690.652065	0.460359
690.989150	0.467826
691.326185	0.473887
691.663170	0.479073
692.000105	0.486121
692.336990	0.492346
692.673825	0.495885
693.010610	0.502739
693.347345	0.507869
693.684030	0.508722
694.020665	0.514046
694.357251	0.522130
694.693786	0.522126
695.030272	0.526723
695.366707	0.529799
695.703093	0.532964
696.039429	0.531124
696.375716	0.532802
696.711952	0.535354
697.048139	0.537680
697.384276	0.538970
697.720363	0.537935
698.056400	0.536792
698.392388	0.541835
698.728326	0.544942
699.064214	0.547993
699.400053	0.549152
699.735842	0.551434
700.071581	0.554671
700.407270	0.557779
700.742910	0.560404
701.078501	0.567247
701.414042	0.567357
701.749533	0.570624
702.084974	0.578959
702.420366	0.571446
702.755709	0.579577
703.091002	0.586614
703.426246	0.580083
703.761440	0.586002
704.096584	0.590624
704.431679	0.587638
704.766725	0.589543
705.101721	0.591053
705.436668	0.587376
705.771565	0.594323
706.106413	0.592018
706.441212	0.586759
706.775961	0.585637
707.110661	0.588383
707.445311	0.584721
707.779913	0.581763
708.114465	0.580241
708.448967	0.577355
708.783421	0.569315
709.117825	0.564033
709.452180	0.563621
709.786485	0.557270
710.120742	0.547466
710.454949	0.549355
710.789107	0.541889
711.123216	0.533103
711.457275	0.534675
711.791286	0.524755
712.125247	0.524357
712.459159	0.534739
712.793023	0.527508
713.126837	0.532185
713.460602	0.531874
713.794318	0.541849
714.127985	0.540224
714.461602	0.549960
714.795171	0.553692
715.128691	0.561759
715.462162	0.568171
715.795584	0.574365
716.128957	0.577155
716.462281	0.584482
716.795556	0.587819
717.128782	0.592267
717.461960	0.602034
717.795088	0.600570
718.128167	0.606874
718.461198	0.615145
718.794180	0.616063
719.127113	0.618581
719.459997	0.622653
719.792833	0.629137
720.125619	0.630172
720.458357	0.635140
720.791046	0.634890
721.123686	0.638465
721.456278	0.645663
721.788821	0.643737
722.121315	0.646211
722.453761	0.650782
722.786158	0.649050
723.118506	0.645769
723.450805	0.653174
723.783056	0.649400
724.115259	0.647270
724.447412	0.646088
724.779518	0.647842
725.111574	0.645943
725.443582	0.643051
725.775542	0.643772
726.107453	0.636285
726.439315	0.636361
726.771129	0.634406
727.102895	0.627634
727.434612	0.621016
727.766281	0.618682
728.097901	0.618171
728.429473	0.617789
728.760996	0.615877
729.092471	0.615981
729.423897	0.619860
729.755276	0.619619
730.086606	0.619381
730.417887	0.613298
730.749120	0.604440
731.080305	0.595225
731.411442	0.591659
731.742530	0.596538
732.073570	0.596468
732.404562	0.587569
732.735506	0.589479
733.066401	0.593903
733.397249	0.603164
733.728048	0.614685
734.058798	0.627441
734.389501	0.637569
734.720156	0.647509
735.050762	0.655795
735.381320	0.656208
735.711831	0.665532
736.042293	0.670419
736.372707	0.666357
736.703073	0.670835
737.033391	0.673058
737.363661	0.670655
737.693883	0.665468
738.024056	0.664323
738.354182	0.664841
738.684260	0.653585
739.014290	0.649528
739.344272	0.650788
739.674207	0.644584
740.004093	0.643407
740.333931	0.644147
740.663722	0.643836
740.993464	0.644712
741.323159	0.648597
741.652806	0.653790
741.982405	0.658491
742.311956	0.662915
742.641460	0.665482
742.970915	0.668822
743.300323	0.676770
743.629683	0.682074
743.958996	0.684198
744.288260	0.688307
744.617477	0.694074
744.946647	0.697034
745.275768	0.701980
745.604842	0.701539
745.933869	0.711604
746.262847	0.712364
746.591778	0.705617
746.920662	0.712336
747.249498	0.718309
747.578286	0.708303
747.907027	0.704417
748.235720	0.706285
748.564365	0.701074
748.892963	0.701266
749.221514	0.703560
749.550017	0.708538
749.878473	0.708003
750.206881	0.715496
750.535242	0.716216
750.863555	0.715918
751.191821	0.717110
751.520039	0.720369
751.848210	0.725313
752.176334	0.717170
752.504411	0.717228
752.832440	0.724646
753.160421	0.728961
753.488356	0.727439
753.816243	0.724482
754.144082	0.732886
754.471875	0.736124
754.799620	0.732446
755.127318	0.733247
755.454969	0.733690
755.782572	0.732039
756.110129	0.738252
756.437638	0.739623
756.765100	0.736685
757.092515	0.735042
757.419882	0.733177
757.747203	0.738524
758.074477	0.737865
758.401703	0.735304
758.728882	0.730074
759.056014	0.729497
759.383099	0.728335
759.710138	0.730073
760.037129	0.727060
760.364073	0.719741
760.690970	0.723110
761.017820	0.728245
761.344623	0.722665
761.671379	0.714810
761.998088	0.702951
762.324751	0.680944
762.651366	0.639427
762.977935	0.573144
763.304456	0.520457
763.630931	0.511297
763.957359	0.550277
764.283740	0.594819
764.610074	0.621242
764.936362	0.652727
765.262602	0.678208
765.588796	0.699830
765.914943	0.717877
766.241044	0.735719
766.567097	0.742139
766.893104	0.752137
767.219064	0.758108
767.544978	0.763808
767.870845	0.778995
768.196665	0.781922
768.522438	0.780113
768.848165	0.780981
769.173846	0.789323
769.499479	0.795126
769.825066	0.798022
770.150607	0.803327
770.476101	0.798511
770.801548	0.799324
771.126949	0.810340
771.452303	0.814686
771.777611	0.813176
772.102872	0.812402
772.428087	0.819111
772.753256	0.822173
773.078378	0.823192
773.403453	0.833093
773.728482	0.837432
774.053465	0.829933
774.378401	0.833659
774.703291	0.842760
775.028135	0.841642
775.352932	0.842830
775.677683	0.846969
776.002388	0.847017
776.327046	0.846816
776.651658	0.848898
776.976224	0.853309
777.300743	0.852948
777.625216	0.854903
777.949643	0.856546
778.274024	0.857298
778.598359	0.858490
778.922647	0.857379
779.246889	0.857376
779.571086	0.862301
779.895236	0.864524
780.219339	0.861567
780.543397	0.857281
780.867409	0.856101
781.191374	0.859204
781.515294	0.860812
781.839167	0.859111
782.162995	0.862631
782.486776	0.859341
782.810511	0.859939
783.134201	0.864965
783.457844	0.861489
783.781441	0.864602
784.104993	0.870283
784.428498	0.870497
784.751958	0.865699
785.075372	0.869203
785.398739	0.872609
785.722061	0.869343
786.045337	0.864266
786.368568	0.868863
786.691752	0.871069
787.014891	0.857649
787.337983	0.849444
787.661030	0.841192
787.984031	0.825339
788.306987	0.811190
788.629897	0.813833
788.952760	0.817468
789.275579	0.821612
789.598351	0.836895
789.921078	0.850156
790.243759	0.852017
790.566395	0.857169
790.888984	0.864755
791.211529	0.867950
791.534027	0.871835
791.856480	0.874119
792.178888	0.878824
792.501249	0.881572
792.823566	0.882913
793.145836	0.883255
793.468062	0.884012
793.790241	0.884913
794.112375	0.882644
794.434464	0.878550
794.756507	0.877922
795.078505	0.877173
795.400457	0.871746
795.722364	0.860117
796.044226	0.852820
796.366042	0.853054
796.687812	0.855977
797.009538	0.852471
797.331218	0.854690
797.652852	0.859732
797.974442	0.864606
798.295986	0.864270
798.617484	0.867572
798.938938	0.871642
799.260346	0.876431
799.581709	0.878284
799.903026	0.879244
800.224299	0.880268
800.545526	0.884084
800.866708	0.888969
801.187845	0.892944
801.508936	0.892107
801.829983	0.889704
802.150984	0.892736
802.471940	0.897387
802.792851	0.896445
803.113717	0.898557
803.434538	0.896190
803.755314	0.897763
804.076045	0.900112
804.396731	0.900700
804.717372	0.899928
805.037967	0.901868
805.358518	0.899765
805.679024	0.897167
805.999485	0.897806
806.319901	0.896956
806.640272	0.897787
806.960598	0.897481
807.280879	0.893246
807.601115	0.892716
807.921306	0.896218
808.241453	0.896311
808.561554	0.894514
808.881611	0.893295
809.201623	0.896167
809.521590	0.896982
809.841513	0.897627
810.161390	0.896147
810.481223	0.897282
810.801011	0.901531
811.120755	0.903755
811.440453	0.901993
811.760107	0.900466
812.079716	0.899590
812.399281	0.903683
812.718801	0.906139
813.038276	0.908033
813.357707	0.906955
813.677093	0.903356
813.996434	0.907353
814.315731	0.908554
814.634983	0.910523
814.954191	0.908246
815.273354	0.904462
815.592473	0.901487
815.911547	0.901610
816.230577	0.899491
816.549562	0.895886
816.868502	0.896930
817.187399	0.893787
817.506250	0.887758
817.825058	0.889507
818.143821	0.887140
818.462539	0.881534
818.781213	0.873558
819.099843	0.862182
819.418429	0.846762
819.736970	0.830598
820.055466	0.811158
820.373919	0.785777
820.692327	0.752472
821.010691	0.718230
821.329011	0.642006
821.647286	0.527758
821.965517	0.414133
822.283704	0.371729
822.601847	0.373526
822.919945	0.408817
823.237999	0.441804
823.556010	0.488347
823.873976	0.543909
824.191897	0.594161
824.509775	0.636047
824.827609	0.681502
825.145398	0.704300
825.463144	0.706785
825.780845	0.689650
826.098502	0.670230
826.416116	0.625709
826.733685	0.582444
827.051210	0.573563
827.368692	0.587709
827.686129	0.624913
828.003522	0.677074
828.320872	0.725323
828.638177	0.768212
828.955439	0.801797
829.272656	0.822533
829.589830	0.839596
829.906960	0.854493
830.224046	0.868421
830.541088	0.877636
830.858086	0.881925
831.175041	0.888180
831.491952	0.887601
831.808819	0.884172
832.125642	0.876990
832.442421	0.863089
832.759157	0.841312
833.075849	0.795356
833.392497	0.732218
833.709101	0.691304
834.025662	0.701529
834.342179	0.732360
834.658653	0.771768
834.975083	0.806611
835.291469	0.832843
835.607811	0.855128
835.924110	0.871402
836.240366	0.888118
836.556578	0.901852
836.872746	0.909010
837.188871	0.914126
837.504952	0.920670
837.820990	0.924416
838.136984	0.927473
838.452935	0.931076
838.768842	0.931812
839.084706	0.923677
839.400526	0.899924
839.716303	0.858468
840.032037	0.836977
840.347727	0.841623
840.663373	0.859382
840.978977	0.880680
841.294537	0.903758
841.610054	0.919786
841.925527	0.926372
842.240957	0.933369
842.556344	0.940386
842.871687	0.946799
843.186987	0.950073
843.502244	0.949601
843.817458	0.951667
844.132629	0.955575
844.447756	0.960353
844.762840	0.960860
845.077881	0.960138
845.392879	0.959836
845.707833	0.962190
846.022745	0.963262
846.337613	0.964840
846.652438	0.965081
846.967221	0.965593
847.281960	0.965541
847.596656	0.967240
847.911309	0.965248
848.225919	0.968064
848.540485	0.969125
848.855009	0.968480
849.169490	0.967994
849.483928	0.969207
849.798323	0.969644
850.112675	0.970282
850.426984	0.969384
850.741251	0.970046
851.055474	0.969854
851.369654	0.969181
851.683792	0.968327
851.997887	0.969899
852.311938	0.971087
852.625947	0.969978
852.939914	0.967362
853.253837	0.968843
853.567718	0.970005
853.881555	0.970481
854.195350	0.968205
854.509103	0.969209
854.822812	0.969818
855.136479	0.970276
855.450103	0.969321
855.763685	0.969063
856.077224	0.968103
856.390720	0.969966
856.704173	0.971419
857.017584	0.968394
857.330953	0.967061
857.644278	0.969219
857.957561	0.969417
858.270802	0.969184
858.584000	0.967241
858.897155	0.965891
859.210268	0.968835
859.523339	0.968002
859.836367	0.969456
860.149352	0.970453
860.462295	0.968307
860.775195	0.969997
861.088054	0.969076
861.400869	0.969732
861.713642	0.969678
862.026373	0.970688
862.339062	0.969943
862.651708	0.968281
862.964312	0.968540
863.276873	0.968791
863.589392	0.968162
863.901869	0.966268
864.214303	0.964558
864.526696	0.963404
864.839045	0.962708
865.151353	0.961606
865.463619	0.963475
865.775842	0.962319
866.088023	0.962141
866.400162	0.962434
866.712258	0.962536
867.024313	0.963477
867.336325	0.963303
867.648296	0.962520
867.960224	0.962119
868.272110	0.961051
868.583954	0.963990
868.895755	0.963679
869.207515	0.961703
869.519233	0.959342
869.830909	0.961239
870.142542	0.963200
870.454134	0.962247
870.765684	0.960957
871.077191	0.958629
871.388657	0.958173
871.700081	0.957456
872.011463	0.958875
872.322803	0.957014
872.634101	0.957140
872.945357	0.954330
873.256571	0.952888
873.567744	0.952946
873.878874	0.953305
874.189963	0.953243
874.501010	0.951156
874.812015	0.949210
875.122979	0.951836
875.433900	0.953538
875.744780	0.953317
876.055618	0.951544
876.366415	0.950938
876.677169	0.950541
876.987882	0.952117
877.298554	0.951346
877.609183	0.947279
877.919771	0.945116
878.230317	0.943038
878.540822	0.941113
878.851285	0.934998
879.161707	0.927571
879.472087	0.915706
879.782425	0.900620
880.092722	0.866153
880.402977	0.814965
880.713191	0.755635
881.023363	0.697366
881.333494	0.663938
881.643583	0.635654
881.953631	0.635503
882.263637	0.663551
882.573602	0.704022
882.883526	0.728185
883.193408	0.752051
883.503248	0.773786
883.813048	0.801485
884.122806	0.830107
884.432522	0.852966
884.742197	0.872346
885.051831	0.882448
885.361424	0.892965
885.670975	0.904439
885.980485	0.914945
886.289954	0.920336
886.599382	0.924930
886.908768	0.929514
887.218113	0.935489
887.527417	0.939638
887.836680	0.942742
888.145901	0.943422
888.455082	0.946904
888.764221	0.951281
889.073319	0.952842
889.382376	0.953126
889.691392	0.952863
890.000366	0.952316
890.309300	0.953006
890.618193	0.952675
890.927044	0.951311
891.235855	0.952268
891.544625	0.952140
891.853353	0.950872
892.162041	0.950227
892.470687	0.942407
892.779293	0.939807
893.087858	0.934228
893.396381	0.926653
893.704864	0.913953
894.013306	0.890841
894.321707	0.864301
894.630068	0.850473
894.938387	0.845551
895.246665	0.846880
895.554903	0.858742
895.863100	0.871624
896.171256	0.889685
896.479371	0.907307
896.787446	0.920357
897.095480	0.926591
897.403473	0.928462
897.711425	0.932996
898.019336	0.940810
898.327207	0.943419
898.635038	0.945980
898.942827	0.945597
899.250576	0.947718
899.558284	0.952783
899.865952	0.954337
900.173579	0.955191
900.481165	0.957165
900.788711	0.960439
901.096216	0.961716
901.403681	0.961714
901.711105	0.962934
902.018489	0.964272
902.325832	0.962344
902.633135	0.962004
902.940397	0.956709
903.247619	0.943762
903.554800	0.918915
903.861941	0.880441
904.169041	0.846485
904.476101	0.829114
904.783121	0.829252
905.090100	0.845504
905.397039	0.866920
905.703938	0.888788
906.010796	0.906965
906.317614	0.923983
906.624391	0.935057
906.931129	0.944141
907.237826	0.952721
907.544483	0.960315
907.851099	0.963570
908.157675	0.967874
908.464211	0.970200
908.770707	0.973081
909.077163	0.974476
909.383578	0.974749
909.689954	0.975740
909.996289	0.976089
910.302584	0.977625
910.608839	0.979504
910.915054	0.977844
911.221229	0.977801
911.527363	0.976655
911.833458	0.976713
912.139513	0.976644
912.445527	0.976544
912.751502	0.974292
913.057436	0.973641
913.363331	0.970794
913.669186	0.966556
913.975000	0.962014
914.280775	0.955477
914.586510	0.950122
914.892205	0.935942
915.197859	0.915750
915.503475	0.888953
915.809050	0.869963
916.114585	0.864689
916.420081	0.861831
916.725536	0.858358
917.030952	0.866331
917.336328	0.879751
917.641665	0.894521
917.946961	0.908666
918.252218	0.921196
918.557435	0.928876
918.862612	0.938315
919.167750	0.942408
919.472848	0.948393
919.777906	0.953067
920.082925	0.958960
920.387904	0.962636
920.692843	0.963041
920.997743	0.964551
921.302603	0.967733
921.607423	0.969799
921.912204	0.972639
922.216946	0.972535
922.521647	0.973757
922.826310	0.975128
923.130932	0.978228
923.435516	0.978268
923.740059	0.979922
924.044564	0.979530
924.349028	0.980414
924.653454	0.983421
924.957840	0.985048
925.262186	0.984622
925.566493	0.983261
925.870761	0.984938
926.174989	0.986689
926.479178	0.986714
926.783328	0.987641
927.087438	0.988228
927.391509	0.987956
927.695541	0.990558
927.999533	0.990499
928.303486	0.988767
928.607400	0.990543
928.911275	0.989652
929.215110	0.989854
929.518906	0.990956
929.822663	0.990370
930.126381	0.990721
930.430060	0.989721
930.733699	0.989401
931.037299	0.989746
931.340861	0.990467
931.644383	0.988928
931.947866	0.989878
932.251309	0.991064
932.554714	0.990422
932.858080	0.989075
933.161407	0.990484
933.464694	0.991183
933.767943	0.989251
934.071153	0.990494
934.374323	0.991091
934.677455	0.990714
934.980548	0.991789
935.283602	0.990354
935.586617	0.991142
935.889593	0.990310
936.192530	0.989579
936.495428	0.989769
936.798287	0.990606
937.101108	0.990064
937.403890	0.988846
937.706632	0.989499
938.009336	0.986206
938.312002	0.987605
938.614628	0.984143
938.917216	0.983490
939.219765	0.982021
939.522275	0.983340
939.824747	0.983452
940.127179	0.982261
940.429573	0.984075
940.731929	0.984032
941.034246	0.984509
941.336524	0.985044
941.638763	0.986047
941.940964	0.986484
942.243126	0.987335
942.545250	0.987161
942.847335	0.987814
943.149381	0.987767
943.451389	0.987580
943.753359	0.988741
944.055290	0.991236
944.357182	0.989316
944.659036	0.989093
944.960851	0.988336
945.262628	0.990248
945.564367	0.990027
945.866067	0.990764
946.167729	0.989371
946.469352	0.989120
946.770937	0.988534
947.072484	0.990699
947.373992	0.990209
947.675462	0.989936
947.976893	0.989608
948.278286	0.989735
948.579641	0.990985
948.880958	0.990927
949.182236	0.989297
949.483476	0.991085
949.784678	0.988701
950.085841	0.990596
950.386967	0.990631
950.688054	0.989914
950.989103	0.990761
951.290114	0.987624
951.591087	0.989702
951.892021	0.989380
952.192917	0.988164
952.493776	0.988655
952.794596	0.988691
953.095378	0.988157
953.396122	0.987111
953.696828	0.987736
953.997496	0.989136
954.298126	0.991696
954.598718	0.989448
954.899272	0.990733
955.199788	0.989485
955.500266	0.990763
955.800706	0.993081
956.101108	0.992065
956.401472	0.992891
956.701798	0.993520
957.002087	0.992556
957.302337	0.992949
957.602550	0.995364
957.902724	0.995358
958.202861	0.994887
958.502960	0.995908
958.803022	0.994548
959.103045	0.994932
959.403031	0.995932
959.702979	0.994579
960.002889	0.995410
960.302762	0.994929
960.602596	0.995720
960.902393	0.994350
961.202153	0.996994
961.501875	0.996482
961.801559	0.995758
962.101205	0.996019
962.400814	0.997390
962.700385	0.996732
962.999918	0.996547
963.299414	0.995779
963.598873	0.996095
963.898293	0.995851
964.197677	0.995327
964.497022	0.995896
964.796331	0.997739
965.095601	0.996524
965.394835	0.995415
965.694030	0.996820
965.993189	0.997252
966.292309	0.996642
966.591393	0.996619
966.890439	0.995867
967.189447	0.996765
967.488419	0.997006
967.787353	0.996006
968.086249	0.996065
968.385108	0.996659
968.683930	0.996633
968.982714	0.997543
969.281462	0.997357
969.580172	0.995073
969.878844	0.997106
970.177480	0.996591
970.476078	0.997247
970.774639	0.996184
971.073162	0.995907
971.371649	0.995784
971.670098	0.995814
971.968510	0.996606
972.266885	0.995588
972.565223	0.996816
972.863524	0.995842
973.161788	0.996596
973.460014	0.996970
973.758204	0.995412
974.056356	0.995939
974.354471	0.992939
974.652550	0.995803
974.950591	0.996093
975.248595	0.995361
975.546563	0.996134
975.844493	0.998167
976.142386	0.997533
976.440243	0.996558
976.738062	0.996852
977.035845	0.997382
977.333590	0.996774
977.631299	0.997222
977.928971	0.996144
978.226606	0.996643
978.524204	0.995536
978.821765	0.997828
979.119290	0.995920
979.416777	0.997149
979.714228	0.996217
980.011642	0.995800
980.309020	0.997548
980.606360	0.996575
980.903664	0.997483
981.200931	0.996815
981.498162	0.994367
981.795356	0.994994
982.092513	0.992971
982.389633	0.995154
982.686717	0.991409
982.983764	0.990071
983.280775	0.990104
983.577749	0.990728
983.874686	0.991883
984.171587	0.991506
984.468451	0.994023
984.765279	0.993979
985.062070	0.992985
985.358824	0.994839
985.655543	0.995209
985.952224	0.995734
986.248869	0.996158
986.545478	0.996199
986.842050	0.998659
987.138586	0.995419
987.435086	0.996776
987.731549	0.998531
988.027975	0.996726
988.324366	0.996921
988.620719	0.997591
988.917037	0.996122
989.213318	0.998026
989.509563	0.998387
989.805772	0.998040
990.101944	0.997561
990.398080	0.997434
990.694180	0.997200
990.990244	0.996300
991.286271	0.998386
991.582262	0.997548
991.878217	0.997316
992.174136	0.998774
992.470019	0.997909
992.765865	0.997654
993.061676	0.997616
993.357450	0.997483
993.653188	0.996733
993.948890	0.996986
994.244556	0.998174
994.540186	0.996297
994.835780	0.996431
995.131337	0.996893
995.426859	0.995803
995.722345	0.996822
996.017795	0.995946
996.313208	0.995632
996.608586	0.994652
996.903928	0.995866
997.199234	0.994856
997.494504	0.996575
997.789738	0.996523
998.084936	0.996501
998.380099	0.997753
998.675225	0.996889
998.970316	0.998431
999.265371	0.998534
999.560390	0.997034
999.855373	0.997811
1000.150320	0.997246
1000.445232	0.997864
1000.740108	0.997924
1001.034948	0.997617
1001.329752	0.998384
1001.624521	0.997990
1001.919254	0.997103
1002.213951	0.997590
1002.508613	0.997653
1002.803239	0.997684
1003.097829	0.998677
1003.392384	0.998794
1003.686903	0.997526
1003.981386	0.998631
1004.275834	0.997882
1004.570246	0.998249
1004.864623	0.998987
1005.158964	0.998095
1005.453270	0.997425
1005.747540	0.997933
1006.041775	0.999778
1006.335974	0.999205
1006.630138	0.999027
1006.924266	0.999787
1007.218359	1.000144
1007.512416	0.999114
1007.806438	0.998664
1008.100425	1.000004
1008.394376	0.999373
1008.688292	0.997612
1008.982172	1.000138
1009.276017	0.998058
1009.569827	0.997890
1009.863602	0.998473
1010.157341	0.997894
1010.451045	0.999118
1010.744714	0.997633
1011.038347	0.998474
1011.331945	0.998407
1011.625508	0.996661
1011.919036	0.998319
1012.212528	0.998957
1012.505986	0.996877
1012.799408	0.998273
1013.092795	0.999169
1013.386147	0.998474
1013.679464	0.997967
1013.972745	0.997343
1014.265992	0.996452
1014.559204	0.998868
1014.852380	0.998227
1015.145521	0.998974
1015.438628	0.999148
1015.731699	0.998516
1016.024736	0.998756
1016.317737	0.998518
1016.610703	0.998217
1016.903635	0.998965
1017.196531	0.998196
1017.489393	1.000050
1017.782219	0.997521
1018.075011	0.998823
1018.367768	0.998348
1018.660490	0.998567
1018.953177	0.998567
1019.245829	0.998567
