Dividing Wavelength (nm)	Counts (n)	Blue Motor Position (mm): 0.000000	Red Motor Position (mm): 4.800000	
326.493990	1.001750
326.888308	1.001750
327.282561	1.001750
327.676750	0.999542
328.070874	0.999098
328.464933	1.000791
328.858929	0.999531
329.252859	0.999734
329.646726	0.998646
330.040528	0.999810
330.434265	0.998981
330.827938	1.000722
331.221547	1.000818
331.615091	1.000207
332.008571	1.000583
332.401986	1.000982
332.795338	1.000042
333.188625	0.999158
333.581847	1.001500
333.975006	1.000310
334.368100	0.999889
334.761129	1.000857
335.154095	1.000864
335.546996	0.996882
335.939833	0.992684
336.332606	0.993730
336.725315	0.994352
337.117960	0.994471
337.510540	0.993223
337.903056	0.993839
338.295508	0.993194
338.687896	0.993497
339.080220	0.993852
339.472480	0.994287
339.864676	0.992634
340.256807	0.994217
340.648875	0.994275
341.040879	0.993442
341.432818	0.993969
341.824694	0.993041
342.216506	0.993114
342.608253	0.993642
342.999937	0.993484
343.391557	0.993187
343.783113	0.993019
344.174605	0.993250
344.566033	0.993344
344.957397	0.993499
345.348697	0.993723
345.739934	0.994000
346.131106	0.992575
346.522215	0.993193
346.913260	0.993863
347.304241	0.993466
347.695159	0.993066
348.086012	0.992570
348.476802	0.992472
348.867528	0.993974
349.258191	0.991986
349.648789	0.994622
350.039324	0.992881
350.429796	0.993413
350.820203	0.993321
351.210548	0.993247
351.600828	0.992999
351.991045	0.992670
352.381198	0.992533
352.771288	0.991932
353.161314	0.992519
353.551276	0.993600
353.941175	0.992410
354.331010	0.991882
354.720782	0.993854
355.110490	0.993658
355.500135	0.994798
355.889717	0.991550
356.279235	0.993157
356.668689	0.992628
357.058080	0.993370
357.447408	0.993372
357.836672	0.992218
358.225873	0.993770
358.615010	0.992233
359.004084	0.994230
359.393095	0.993479
359.782043	0.992438
360.170927	0.993871
360.559748	0.992123
360.948505	0.991560
361.337199	0.992571
361.725830	0.992247
362.114398	0.993482
362.502903	0.992909
362.891344	0.992254
363.279722	0.991582
363.668037	0.993014
364.056289	0.992515
364.444478	0.993150
364.832603	0.992221
365.220665	0.992452
365.608665	0.991234
365.996601	0.991272
366.384474	0.992278
366.772284	0.991553
367.160031	0.991264
367.547715	0.989794
367.935336	0.990952
368.322893	0.990286
368.710388	0.989394
369.097820	0.990348
369.485189	0.988902
369.872495	0.988382
370.259738	0.985358
370.646918	0.986752
371.034035	0.985390
371.421090	0.983059
371.808081	0.980377
372.195010	0.977197
372.581875	0.975326
372.968678	0.972260
373.355418	0.968644
373.742096	0.963560
374.128710	0.961445
374.515262	0.955896
374.901751	0.951001
375.288177	0.947357
375.674540	0.942595
376.060841	0.935633
376.447079	0.930434
376.833254	0.923445
377.219367	0.918307
377.605417	0.909204
377.991404	0.904319
378.377329	0.897322
378.763191	0.892100
379.148991	0.882070
379.534727	0.874211
379.920402	0.867238
380.306013	0.861182
380.691563	0.848442
381.077049	0.839926
381.462474	0.835301
381.847835	0.823770
382.233134	0.817166
382.618371	0.816494
383.003545	0.798410
383.388657	0.794958
383.773706	0.786968
384.158693	0.781670
384.543618	0.773076
384.928480	0.765099
385.313280	0.753082
385.698017	0.753312
386.082692	0.741173
386.467305	0.738936
386.851856	0.730928
387.236344	0.724281
387.620770	0.718087
388.005133	0.712350
388.389435	0.706943
388.773674	0.703348
389.157851	0.695591
389.541965	0.691278
389.926018	0.698274
390.310008	0.684127
390.693936	0.680693
391.077802	0.672767
391.461606	0.674964
391.845348	0.663754
392.229027	0.664568
392.612645	0.660569
392.996200	0.648266
393.379694	0.641258
393.763125	0.631604
394.146494	0.635904
394.529801	0.625691
394.913047	0.619226
395.296230	0.624359
395.679351	0.615709
396.062410	0.612204
396.445408	0.614798
396.828343	0.610650
397.211217	0.605842
397.594028	0.618177
397.976778	0.607496
398.359466	0.604241
398.742092	0.599347
399.124656	0.611528
399.507158	0.600352
399.889598	0.597578
400.271977	0.588544
400.654294	0.593264
401.036549	0.591206
401.418742	0.595956
401.800874	0.581504
402.182944	0.579000
402.564952	0.569750
402.946898	0.572282
403.328783	0.572907
403.710606	0.583704
404.092367	0.559475
404.474067	0.563528
404.855705	0.562673
405.237282	0.571847
405.618797	0.557904
406.000250	0.553401
406.381642	0.544199
406.762972	0.549424
407.144240	0.547462
407.525447	0.548113
407.906593	0.540912
408.287677	0.535496
408.668700	0.544886
409.049661	0.537634
409.430560	0.534054
409.811399	0.541721
410.192176	0.523422
410.572891	0.530169
410.953545	0.518629
411.334138	0.531938
411.714669	0.524922
412.095139	0.536466
412.475547	0.521065
412.855894	0.522819
413.236180	0.522439
413.616405	0.527379
413.996568	0.518633
414.376670	0.523878
414.756711	0.529357
415.136691	0.525596
415.516609	0.516896
415.896466	0.512825
416.276262	0.509362
416.655997	0.511353
417.035670	0.492413
417.415283	0.484706
417.794834	0.489155
418.174324	0.494558
418.553753	0.504020
418.933121	0.486463
419.312428	0.480061
419.691674	0.485288
420.070859	0.474435
420.449983	0.481918
420.829045	0.471625
421.208047	0.480064
421.586988	0.473844
421.965867	0.472687
422.344686	0.461688
422.723444	0.474131
423.102141	0.491019
423.480777	0.463508
423.859352	0.484179
424.237866	0.461455
424.616319	0.461975
424.994712	0.452677
425.373044	0.463596
425.751314	0.451124
426.129524	0.467704
426.507673	0.452066
426.885762	0.445485
427.263789	0.450558
427.641756	0.460318
428.019662	0.450557
428.397508	0.449545
428.775292	0.454115
429.153016	0.445995
429.530679	0.452109
429.908282	0.445800
430.285824	0.455656
430.663305	0.434125
431.040726	0.455031
431.418086	0.455563
431.795385	0.446504
432.172624	0.445466
432.549802	0.446508
432.926920	0.445329
433.303977	0.444911
433.680974	0.442101
434.057910	0.440494
434.434786	0.439746
434.811601	0.442209
435.188355	0.424252
435.565050	0.433695
435.941683	0.435408
436.318257	0.419985
436.694770	0.420136
437.071222	0.418547
437.447614	0.422875
437.823946	0.429540
438.200218	0.418301
438.576429	0.428350
438.952580	0.421631
439.328670	0.418222
439.704700	0.424712
440.080670	0.425955
440.456580	0.407013
440.832429	0.414987
441.208218	0.425891
441.583947	0.415270
441.959616	0.414908
442.335224	0.419624
442.710773	0.410621
443.086261	0.408511
443.461689	0.422658
443.837057	0.412741
444.212365	0.402048
444.587612	0.409215
444.962800	0.399071
445.337927	0.400720
445.712995	0.427406
446.088002	0.389067
446.462949	0.399785
446.837837	0.404061
447.212664	0.393434
447.587431	0.384657
447.962139	0.355314
448.336786	0.314646
448.711374	0.324987
449.085901	0.368748
449.460369	0.373198
449.834776	0.376727
450.209124	0.356236
450.583412	0.348356
450.957640	0.341741
451.331808	0.353149
451.705917	0.376461
452.079965	0.380848
452.453954	0.369477
452.827883	0.376291
453.201752	0.370937
453.575562	0.382475
453.949311	0.370807
454.323001	0.376870
454.696632	0.372457
455.070202	0.365204
455.443713	0.357115
455.817164	0.351925
456.190556	0.347446
456.563888	0.344582
456.937160	0.341846
457.310373	0.359384
457.683526	0.358099
458.056619	0.364073
458.429653	0.364365
458.802628	0.367898
459.175542	0.362171
459.548398	0.344882
459.921194	0.336964
460.293930	0.337471
460.666607	0.315094
461.039224	0.302492
461.411782	0.299072
461.784280	0.298254
462.156719	0.302144
462.529099	0.306570
462.901419	0.322365
463.273680	0.327007
463.645882	0.326656
464.018024	0.332300
464.390106	0.325052
464.762130	0.310129
465.134094	0.293049
465.505999	0.262300
465.877845	0.232646
466.249631	0.219603
466.621358	0.227033
466.993026	0.240792
467.364634	0.247007
467.736184	0.255825
468.107674	0.264559
468.479105	0.263408
468.850477	0.270430
469.221790	0.277291
469.593043	0.287641
469.964238	0.292009
470.335373	0.291493
470.706449	0.289744
471.077467	0.290676
471.448425	0.252379
471.819324	0.228231
472.190164	0.227418
472.560945	0.256496
472.931667	0.278204
473.302330	0.282770
473.672934	0.294410
474.043479	0.282975
474.413965	0.284302
474.784393	0.288204
475.154761	0.283239
475.525070	0.280062
475.895321	0.286197
476.265513	0.280021
476.635645	0.275359
477.005719	0.275533
477.375734	0.271965
477.745691	0.265391
478.115588	0.261485
478.485427	0.255451
478.855207	0.242232
479.224928	0.224697
479.594591	0.212851
479.964194	0.216380
480.333739	0.217277
480.703226	0.218863
481.072653	0.217358
481.442022	0.213161
481.811333	0.209725
482.180584	0.212987
482.549777	0.218243
482.918912	0.221748
483.287988	0.221508
483.657005	0.221045
484.025964	0.227484
484.394864	0.224765
484.763706	0.225372
485.132489	0.230272
485.501213	0.231158
485.869879	0.229366
486.238487	0.232874
486.607036	0.230580
486.975527	0.235336
487.343959	0.230928
487.712333	0.230226
488.080648	0.231454
488.448905	0.230903
488.817104	0.231959
489.185244	0.226698
489.553326	0.223594
489.921350	0.213353
490.289315	0.195817
490.657222	0.190931
491.025070	0.192055
491.392861	0.194152
491.760593	0.200060
492.128267	0.205468
492.495883	0.211041
492.863440	0.217113
493.230939	0.223730
493.598380	0.224793
493.965763	0.227154
494.333088	0.229607
494.700354	0.230715
495.067563	0.229848
495.434713	0.232808
495.801805	0.230934
496.168839	0.232489
496.535815	0.233715
496.902733	0.233912
497.269593	0.235431
497.636395	0.233115
498.003139	0.233524
498.369825	0.236684
498.736453	0.233158
499.103023	0.234339
499.469535	0.233954
499.835989	0.233969
500.202385	0.235186
500.568723	0.238276
500.935003	0.233303
501.301226	0.237786
501.667390	0.231782
502.033497	0.230166
502.399546	0.233214
502.765537	0.234833
503.131470	0.233065
503.497345	0.229483
503.863163	0.238344
504.228923	0.231128
504.594625	0.229988
504.960269	0.235397
505.325856	0.230752
505.691385	0.234939
506.056856	0.231935
506.422270	0.231200
506.787625	0.233771
507.152924	0.230991
507.518164	0.231572
507.883347	0.233022
508.248472	0.234911
508.613540	0.229961
508.978550	0.232350
509.343503	0.232825
509.708398	0.230748
510.073236	0.228267
510.438016	0.228112
510.802738	0.229144
511.167403	0.228192
511.532010	0.230227
511.896561	0.225687
512.261053	0.224257
512.625488	0.226302
512.989866	0.226827
513.354186	0.226840
513.718449	0.228651
514.082655	0.225278
514.446803	0.227518
514.810894	0.225344
515.174927	0.227886
515.538904	0.227032
515.902822	0.224258
516.266684	0.226702
516.630488	0.227899
516.994235	0.226556
517.357925	0.225162
517.721558	0.223515
518.085133	0.222870
518.448651	0.223058
518.812112	0.225279
519.175516	0.224808
519.538863	0.222518
519.902152	0.224092
520.265385	0.220923
520.628560	0.222815
520.991678	0.223315
521.354739	0.222255
521.717743	0.223396
522.080690	0.223741
522.443580	0.221313
522.806413	0.221964
523.169189	0.221115
523.531908	0.220239
523.894569	0.223916
524.257174	0.223837
524.619722	0.221566
524.982213	0.222575
525.344647	0.221410
525.707025	0.222447
526.069345	0.220466
526.431608	0.221931
526.793815	0.220006
527.155964	0.224230
527.518057	0.223266
527.880093	0.224150
528.242072	0.222985
528.603995	0.224593
528.965860	0.226323
529.327669	0.225226
529.689421	0.226311
530.051117	0.226895
530.412755	0.224375
530.774337	0.227092
531.135862	0.227431
531.497331	0.226586
531.858743	0.229622
532.220098	0.226507
532.581396	0.228661
532.942638	0.229283
533.303824	0.230200
533.664953	0.230015
534.026025	0.231846
534.387040	0.229674
534.747999	0.229639
535.108902	0.228755
535.469748	0.233304
535.830537	0.231604
536.191270	0.231927
536.551947	0.231067
536.912567	0.231229
537.273131	0.233096
537.633638	0.233201
537.994089	0.233454
538.354483	0.234999
538.714821	0.231657
539.075103	0.231310
539.435328	0.232335
539.795497	0.236004
540.155609	0.232591
540.515665	0.230801
540.875665	0.236641
541.235609	0.234862
541.595496	0.234689
541.955328	0.231485
542.315102	0.234200
542.674821	0.235331
543.034483	0.235166
543.394090	0.235017
543.753640	0.236616
544.113134	0.231660
544.472571	0.234988
544.831953	0.231849
545.191278	0.236021
545.550548	0.235878
545.909761	0.232139
546.268918	0.232984
546.628019	0.231322
546.987064	0.234211
547.346053	0.235594
547.704986	0.233401
548.063863	0.233890
548.422684	0.234250
548.781449	0.236066
549.140158	0.233675
549.498811	0.236735
549.857408	0.239601
550.215949	0.234530
550.574434	0.237502
550.932864	0.235501
551.291237	0.233841
551.649555	0.235420
552.007817	0.235228
552.366022	0.236116
552.724173	0.236479
553.082267	0.236788
553.440305	0.233740
553.798288	0.237950
554.156215	0.234319
554.514086	0.235220
554.871902	0.238538
555.229661	0.237492
555.587365	0.238016
555.945014	0.240670
556.302606	0.237634
556.660143	0.240166
557.017625	0.236598
557.375050	0.239056
557.732421	0.235895
558.089735	0.238034
558.446994	0.238107
558.804197	0.236945
559.161345	0.237039
559.518437	0.240506
559.875474	0.238008
560.232455	0.237636
560.589381	0.238689
560.946251	0.239079
561.303065	0.236461
561.659825	0.237959
562.016528	0.239477
562.373177	0.242048
562.729770	0.239593
563.086307	0.241766
563.442789	0.239349
563.799216	0.242492
564.155587	0.240902
564.511904	0.242237
564.868164	0.242235
565.224370	0.242401
565.580520	0.243695
565.936615	0.243735
566.292654	0.246631
566.648638	0.243563
567.004567	0.244341
567.360441	0.245210
567.716260	0.247087
568.072023	0.245087
568.427732	0.245894
568.783385	0.248036
569.138982	0.246284
569.494525	0.245823
569.850013	0.248728
570.205445	0.247391
570.560823	0.249667
570.916145	0.251633
571.271412	0.249983
571.626625	0.251448
571.981782	0.251927
572.336884	0.252882
572.691931	0.252504
573.046923	0.253741
573.401860	0.255068
573.756743	0.256559
574.111570	0.255624
574.466342	0.256028
574.821059	0.255104
575.175722	0.257978
575.530330	0.257515
575.884882	0.257600
576.239380	0.259958
576.593823	0.260510
576.948211	0.259898
577.302544	0.263419
577.656823	0.262691
578.011047	0.262924
578.365216	0.263663
578.719330	0.265579
579.073389	0.265441
579.427394	0.266662
579.781344	0.267494
580.135239	0.268868
580.489080	0.268380
580.842866	0.271596
581.196597	0.271999
581.550273	0.270070
581.903895	0.271165
582.257463	0.269477
582.610975	0.272662
582.964434	0.272047
583.317837	0.274635
583.671186	0.274938
584.024481	0.275251
584.377721	0.277488
584.730906	0.277699
585.084037	0.277258
585.437113	0.279155
585.790135	0.278450
586.143103	0.281565
586.496016	0.282941
586.848874	0.280105
587.201679	0.280884
587.554428	0.284160
587.907124	0.282815
588.259765	0.283737
588.612352	0.284334
588.964884	0.287951
589.317362	0.287598
589.669786	0.287578
590.022155	0.285818
590.374470	0.285303
590.726731	0.286972
591.078937	0.292275
591.431090	0.288477
591.783188	0.292684
592.135232	0.293192
592.487222	0.293131
592.839157	0.291035
593.191038	0.293583
593.542866	0.295096
593.894639	0.298844
594.246358	0.296854
594.598022	0.296329
594.949633	0.300161
595.301190	0.300897
595.652692	0.300224
596.004141	0.295941
596.355535	0.303835
596.706876	0.304767
597.058162	0.307175
597.409395	0.304368
597.760573	0.302465
598.111698	0.305500
598.462768	0.305950
598.813785	0.306827
599.164748	0.308466
599.515657	0.308300
599.866511	0.312217
600.217312	0.307431
600.568060	0.312591
600.918753	0.309041
601.269392	0.309637
601.619978	0.313331
601.970510	0.310628
602.320988	0.310837
602.671412	0.308819
603.021783	0.311200
603.372100	0.312644
603.722363	0.312585
604.072572	0.312781
604.422728	0.312709
604.772830	0.315344
605.122878	0.314321
605.472872	0.315101
605.822813	0.313283
606.172701	0.316255
606.522534	0.313239
606.872314	0.313495
607.222041	0.314813
607.571714	0.312618
607.921333	0.313769
608.270899	0.313648
608.620411	0.310572
608.969870	0.314258
609.319276	0.314556
609.668627	0.314358
610.017926	0.312861
610.367171	0.311334
610.716362	0.312182
611.065500	0.312303
611.414585	0.310944
611.763616	0.311815
612.112594	0.312146
612.461518	0.311543
612.810389	0.308926
613.159207	0.311514
613.507971	0.313538
613.856682	0.308931
614.205340	0.311160
614.553945	0.307507
614.902496	0.311515
615.250994	0.309463
615.599439	0.310450
615.947830	0.309434
616.296169	0.310836
616.644454	0.310252
616.992686	0.310038
617.340864	0.307801
617.688990	0.311552
618.037063	0.307976
618.385082	0.310316
618.733048	0.306805
619.080961	0.309301
619.428821	0.308539
619.776628	0.308047
620.124382	0.310205
620.472083	0.310503
620.819731	0.309696
621.167326	0.313453
621.514868	0.313393
621.862357	0.317796
622.209793	0.317749
622.557176	0.319461
622.904506	0.320540
623.251783	0.323289
623.599007	0.325136
623.946179	0.324693
624.293297	0.326826
624.640363	0.330476
624.987376	0.331241
625.334336	0.333931
625.681243	0.336307
626.028097	0.336932
626.374899	0.338036
626.721647	0.338183
627.068343	0.340989
627.414987	0.342250
627.761577	0.344309
628.108115	0.342967
628.454600	0.347298
628.801032	0.345224
629.147412	0.347290
629.493739	0.347685
629.840014	0.350655
630.186236	0.348152
630.532405	0.353905
630.878521	0.351180
631.224585	0.353259
631.570597	0.356999
631.916556	0.355611
632.262462	0.355813
632.608316	0.358003
632.954117	0.358644
633.299866	0.359078
633.645562	0.359888
633.991206	0.364037
634.336797	0.367192
634.682336	0.369090
635.027823	0.370965
635.373257	0.371614
635.718639	0.375065
636.063968	0.374464
636.409245	0.380103
636.754470	0.380175
637.099642	0.383105
637.444762	0.386187
637.789829	0.385457
638.134845	0.389085
638.479808	0.389550
638.824719	0.389212
639.169577	0.393459
639.514383	0.392403
639.859137	0.396991
640.203839	0.396596
640.548489	0.397297
640.893086	0.398464
641.237632	0.399934
641.582125	0.398404
641.926566	0.399999
642.270955	0.400469
642.615292	0.400624
642.959576	0.399763
643.303809	0.400148
643.647990	0.399773
643.992118	0.400718
644.336195	0.403919
644.680219	0.401897
645.024192	0.403057
645.368112	0.396528
645.711981	0.395592
646.055797	0.390882
646.399562	0.393435
646.743274	0.385421
647.086935	0.382811
647.430544	0.382926
647.774101	0.381766
648.117606	0.381489
648.461059	0.381456
648.804460	0.384411
649.147810	0.389454
649.491108	0.391751
649.834354	0.392463
650.177548	0.397855
650.520690	0.403620
650.863781	0.404741
651.206820	0.403768
651.549807	0.408687
651.892742	0.412791
652.235626	0.412246
652.578458	0.413061
652.921238	0.419563
653.263967	0.417316
653.606644	0.421392
653.949269	0.420571
654.291843	0.424742
654.634365	0.421682
654.976836	0.424665
655.319255	0.424607
655.661622	0.426470
656.003938	0.426373
656.346203	0.429502
656.688416	0.427000
657.030577	0.430746
657.372687	0.432805
657.714746	0.433937
658.056753	0.430460
658.398708	0.434554
658.740612	0.435478
659.082465	0.431420
659.424266	0.431828
659.766016	0.431596
660.107715	0.433726
660.449362	0.433332
660.790958	0.433703
661.132503	0.434217
661.473996	0.432009
661.815438	0.432722
662.156829	0.432570
662.498168	0.433629
662.839456	0.434900
663.180693	0.432727
663.521879	0.432882
663.863013	0.433944
664.204097	0.432302
664.545129	0.429259
664.886110	0.429335
665.227040	0.426889
665.567918	0.429558
665.908746	0.427422
666.249522	0.426896
666.590248	0.428430
666.930922	0.426273
667.271545	0.425203
667.612118	0.425087
667.952639	0.427434
668.293109	0.425478
668.633528	0.429007
668.973896	0.427877
669.314213	0.428395
669.654480	0.430245
669.994695	0.430555
670.334859	0.431682
670.674973	0.431922
671.015035	0.431829
671.355047	0.432052
671.695008	0.432856
672.034918	0.434703
672.374777	0.433706
672.714585	0.435282
673.054342	0.435126
673.394049	0.435508
673.733705	0.432710
674.073310	0.434524
674.412864	0.437381
674.752368	0.437389
675.091820	0.438021
675.431223	0.442543
675.770574	0.442384
676.109875	0.445106
676.449125	0.444932
676.788324	0.447257
677.127473	0.452565
677.466571	0.452709
677.805619	0.454245
678.144616	0.455280
678.483562	0.457023
678.822458	0.459939
679.161303	0.460347
679.500098	0.460624
679.838842	0.462576
680.177535	0.462164
680.516179	0.460995
680.854771	0.460632
681.193314	0.453250
681.531805	0.444756
681.870247	0.433225
682.208638	0.425319
682.546978	0.424174
682.885268	0.425907
683.223508	0.432728
683.561697	0.435914
683.899836	0.438243
684.237925	0.442268
684.575963	0.444777
684.913951	0.447983
685.251889	0.443631
685.589776	0.445722
685.927614	0.447830
686.265401	0.442533
686.603137	0.443734
686.940824	0.437255
687.278460	0.436083
687.616046	0.435536
687.953582	0.429572
688.291068	0.431487
688.628504	0.427128
688.965889	0.429048
689.303224	0.433570
689.640510	0.437165
689.977745	0.443304
690.314930	0.451483
690.652065	0.455787
690.989150	0.463375
691.326185	0.469778
691.663170	0.474672
692.000105	0.481381
692.336990	0.488945
692.673825	0.491002
693.010610	0.498429
693.347345	0.503730
693.684030	0.504884
694.020665	0.509527
694.357251	0.518793
694.693786	0.518600
695.030272	0.522712
695.366707	0.526289
695.703093	0.529278
696.039429	0.527145
696.375716	0.528966
696.711952	0.531543
697.048139	0.532998
697.384276	0.535625
697.720363	0.533471
698.056400	0.533483
698.392388	0.538462
698.728326	0.541300
699.064214	0.543981
699.400053	0.544198
699.735842	0.548337
700.071581	0.550911
700.407270	0.553852
700.742910	0.556721
701.078501	0.563923
701.414042	0.563298
701.749533	0.567178
702.084974	0.575847
702.420366	0.567708
702.755709	0.575969
703.091002	0.582914
703.426246	0.576909
703.761440	0.582437
704.096584	0.587800
704.431679	0.584784
704.766725	0.586160
705.101721	0.587568
705.436668	0.583639
705.771565	0.590802
706.106413	0.587622
706.441212	0.582713
706.775961	0.581970
707.110661	0.585220
707.445311	0.581425
707.779913	0.578617
708.114465	0.576871
708.448967	0.573381
708.783421	0.565412
709.117825	0.559864
709.452180	0.560267
709.786485	0.553877
710.120742	0.544171
710.454949	0.545738
710.789107	0.538182
711.123216	0.528758
711.457275	0.530672
711.791286	0.521543
712.125247	0.520342
712.459159	0.531370
712.793023	0.523757
713.126837	0.528411
713.460602	0.528448
713.794318	0.537897
714.127985	0.536742
714.461602	0.546587
714.795171	0.549977
715.128691	0.558061
715.462162	0.565106
715.795584	0.570814
716.128957	0.573612
716.462281	0.579985
716.795556	0.583795
717.128782	0.588704
717.461960	0.598447
717.795088	0.596385
718.128167	0.603029
718.461198	0.611956
718.794180	0.612466
719.127113	0.615311
719.459997	0.618481
719.792833	0.625326
720.125619	0.625566
720.458357	0.632293
720.791046	0.632261
721.123686	0.635152
721.456278	0.642323
721.788821	0.639505
722.121315	0.643797
722.453761	0.647699
722.786158	0.646324
723.118506	0.641662
723.450805	0.649679
723.783056	0.645759
724.115259	0.642684
724.447412	0.643126
724.779518	0.644663
725.111574	0.642837
725.443582	0.638758
725.775542	0.640740
726.107453	0.633362
726.439315	0.632525
726.771129	0.631377
727.102895	0.624536
727.434612	0.617828
727.766281	0.615689
728.097901	0.614217
728.429473	0.614598
728.760996	0.613020
729.092471	0.612788
729.423897	0.616959
729.755276	0.615403
730.086606	0.616091
730.417887	0.610416
730.749120	0.600995
731.080305	0.592262
731.411442	0.587912
731.742530	0.593130
732.073570	0.591956
732.404562	0.584455
732.735506	0.585800
733.066401	0.590954
733.397249	0.599490
733.728048	0.610974
734.058798	0.623892
734.389501	0.633975
734.720156	0.644317
735.050762	0.652615
735.381320	0.653714
735.711831	0.662528
736.042293	0.667756
736.372707	0.662661
736.703073	0.667501
737.033391	0.670238
737.363661	0.666510
737.693883	0.662517
738.024056	0.661372
738.354182	0.661629
738.684260	0.650340
739.014290	0.647021
739.344272	0.647753
739.674207	0.641002
740.004093	0.640771
740.333931	0.640904
740.663722	0.641189
740.993464	0.641117
741.323159	0.645461
741.652806	0.650351
741.982405	0.654674
742.311956	0.659261
742.641460	0.661775
742.970915	0.665010
743.300323	0.673382
743.629683	0.680010
743.958996	0.681527
744.288260	0.685972
744.617477	0.692115
744.946647	0.693477
745.275768	0.698876
745.604842	0.698439
745.933869	0.708243
746.262847	0.708852
746.591778	0.702516
746.920662	0.708281
747.249498	0.715407
747.578286	0.706725
747.907027	0.701806
748.235720	0.702860
748.564365	0.697495
748.892963	0.698231
749.221514	0.701575
749.550017	0.705793
749.878473	0.706279
750.206881	0.712029
750.535242	0.713186
750.863555	0.713079
751.191821	0.714785
751.520039	0.717895
751.848210	0.722172
752.176334	0.714911
752.504411	0.715078
752.832440	0.722408
753.160421	0.726949
753.488356	0.724086
753.816243	0.722424
754.144082	0.730209
754.471875	0.733914
754.799620	0.729520
755.127318	0.730920
755.454969	0.730829
755.782572	0.729527
756.110129	0.735145
756.437638	0.737620
756.765100	0.734683
757.092515	0.732185
757.419882	0.730792
757.747203	0.735624
758.074477	0.735419
758.401703	0.732662
758.728882	0.727578
759.056014	0.726141
759.383099	0.725641
759.710138	0.726454
760.037129	0.722716
760.364073	0.717074
760.690970	0.719680
761.017820	0.725220
761.344623	0.720274
761.671379	0.710764
761.998088	0.700305
762.324751	0.677051
762.651366	0.635216
762.977935	0.567558
763.304456	0.515365
763.630931	0.506391
763.957359	0.544711
764.283740	0.589595
764.610074	0.617544
764.936362	0.648624
765.262602	0.675087
765.588796	0.696752
765.914943	0.714119
766.241044	0.732763
766.567097	0.738921
766.893104	0.748867
767.219064	0.756257
767.544978	0.762636
767.870845	0.775302
768.196665	0.780338
768.522438	0.776517
768.848165	0.778214
769.173846	0.788273
769.499479	0.791335
769.825066	0.796203
770.150607	0.800840
770.476101	0.796292
770.801548	0.797724
771.126949	0.807884
771.452303	0.812634
771.777611	0.811736
772.102872	0.810714
772.428087	0.816574
772.753256	0.818837
773.078378	0.821274
773.403453	0.831205
773.728482	0.835179
774.053465	0.828618
774.378401	0.831319
774.703291	0.841128
775.028135	0.840477
775.352932	0.841721
775.677683	0.844021
776.002388	0.844653
776.327046	0.843154
776.651658	0.847482
776.976224	0.851006
777.300743	0.851984
777.625216	0.853362
777.949643	0.855261
778.274024	0.855815
778.598359	0.856643
778.922647	0.855095
779.246889	0.855187
779.571086	0.860348
779.895236	0.863126
780.219339	0.859547
780.543397	0.857999
780.867409	0.855171
781.191374	0.857572
781.515294	0.859235
781.839167	0.857189
782.162995	0.860993
782.486776	0.858325
782.810511	0.858666
783.134201	0.862610
783.457844	0.860022
783.781441	0.863033
784.104993	0.868497
784.428498	0.869939
784.751958	0.864370
785.075372	0.866375
785.398739	0.871464
785.722061	0.867852
786.045337	0.864027
786.368568	0.868403
786.691752	0.869886
787.014891	0.856121
787.337983	0.846568
787.661030	0.839406
787.984031	0.821709
788.306987	0.808079
788.629897	0.811063
788.952760	0.814721
789.275579	0.818728
789.598351	0.834354
789.921078	0.847797
790.243759	0.849737
790.566395	0.853697
790.888984	0.862039
791.211529	0.866961
791.534027	0.870448
791.856480	0.872309
792.178888	0.878873
792.501249	0.879849
792.823566	0.881839
793.145836	0.880958
793.468062	0.882810
793.790241	0.884114
794.112375	0.882583
794.434464	0.876897
794.756507	0.876260
795.078505	0.875459
795.400457	0.870350
795.722364	0.858369
796.044226	0.850427
796.366042	0.850380
796.687812	0.853837
797.009538	0.850523
797.331218	0.853931
797.652852	0.857557
797.974442	0.862420
798.295986	0.862747
798.617484	0.864866
798.938938	0.869588
799.260346	0.873961
799.581709	0.876395
799.903026	0.878592
800.224299	0.878538
800.545526	0.882324
800.866708	0.887419
801.187845	0.891106
801.508936	0.890465
801.829983	0.888791
802.150984	0.891040
802.471940	0.895890
802.792851	0.895177
803.113717	0.896851
803.434538	0.894803
803.755314	0.897000
804.076045	0.898683
804.396731	0.899027
804.717372	0.898759
805.037967	0.900649
805.358518	0.897976
805.679024	0.895420
805.999485	0.895434
806.319901	0.895960
806.640272	0.897675
806.960598	0.895016
807.280879	0.892394
807.601115	0.889943
807.921306	0.894423
808.241453	0.894719
808.561554	0.893685
808.881611	0.892622
809.201623	0.894761
809.521590	0.894772
809.841513	0.895574
810.161390	0.894686
810.481223	0.896039
810.801011	0.900185
811.120755	0.901614
811.440453	0.900125
811.760107	0.899145
812.079716	0.899700
812.399281	0.902475
812.718801	0.904864
813.038276	0.906175
813.357707	0.905908
813.677093	0.901604
813.996434	0.905847
814.315731	0.907121
814.634983	0.908578
814.954191	0.906261
815.273354	0.903397
815.592473	0.899349
815.911547	0.899056
816.230577	0.896680
816.549562	0.894491
816.868502	0.896048
817.187399	0.891051
817.506250	0.886550
817.825058	0.887840
818.143821	0.885187
818.462539	0.879825
818.781213	0.871336
819.099843	0.860605
819.418429	0.843923
819.736970	0.827071
820.055466	0.807006
820.373919	0.781841
820.692327	0.747631
821.010691	0.712670
821.329011	0.633715
821.647286	0.516409
821.965517	0.402638
822.283704	0.358619
822.601847	0.359460
822.919945	0.395465
823.237999	0.430305
823.556010	0.477822
823.873976	0.534020
824.191897	0.585260
824.509775	0.628010
824.827609	0.673597
825.145398	0.697544
825.463144	0.700100
825.780845	0.683320
826.098502	0.663644
826.416116	0.617980
826.733685	0.573005
827.051210	0.563865
827.368692	0.578992
827.686129	0.617648
828.003522	0.671110
828.320872	0.719216
828.638177	0.763580
828.955439	0.795746
829.272656	0.818433
829.589830	0.836608
829.906960	0.850741
830.224046	0.863869
830.541088	0.875630
830.858086	0.878479
831.175041	0.885745
831.491952	0.884978
831.808819	0.881760
832.125642	0.874765
832.442421	0.858885
832.759157	0.837527
833.075849	0.790076
833.392497	0.726374
833.709101	0.685326
834.025662	0.694612
834.342179	0.726078
834.658653	0.766052
834.975083	0.802390
835.291469	0.828425
835.607811	0.851942
835.924110	0.868145
836.240366	0.884976
836.556578	0.899929
836.872746	0.907285
837.188871	0.913444
837.504952	0.918948
837.820990	0.921856
838.136984	0.925688
838.452935	0.929242
838.768842	0.930430
839.084706	0.923530
839.400526	0.897677
839.716303	0.856374
840.032037	0.833104
840.347727	0.838041
840.663373	0.855541
840.978977	0.877895
841.294537	0.900889
841.610054	0.916456
841.925527	0.924701
842.240957	0.931055
842.556344	0.938483
842.871687	0.945206
843.186987	0.948468
843.502244	0.949724
843.817458	0.950774
844.132629	0.954521
844.447756	0.959943
844.762840	0.959989
845.077881	0.958297
845.392879	0.959981
845.707833	0.961018
846.022745	0.965090
846.337613	0.964235
846.652438	0.966390
846.967221	0.963478
847.281960	0.964314
847.596656	0.966394
847.911309	0.965509
848.225919	0.967021
848.540485	0.967685
848.855009	0.968220
849.169490	0.967974
849.483928	0.968751
849.798323	0.969150
850.112675	0.970406
850.426984	0.968998
850.741251	0.969356
851.055474	0.969649
851.369654	0.968053
851.683792	0.968318
851.997887	0.968443
852.311938	0.969655
852.625947	0.969316
852.939914	0.968875
853.253837	0.968964
853.567718	0.970343
853.881555	0.970361
854.195350	0.967322
854.509103	0.969583
854.822812	0.969092
855.136479	0.969425
855.450103	0.969176
855.763685	0.967866
856.077224	0.967867
856.390720	0.969426
856.704173	0.970940
857.017584	0.968537
857.330953	0.966504
857.644278	0.967903
857.957561	0.967328
858.270802	0.967232
858.584000	0.967410
858.897155	0.966834
859.210268	0.967002
859.523339	0.967241
859.836367	0.969052
860.149352	0.970611
860.462295	0.968471
860.775195	0.968178
861.088054	0.968029
861.400869	0.969377
861.713642	0.969685
862.026373	0.969191
862.339062	0.969002
862.651708	0.968031
862.964312	0.967514
863.276873	0.969335
863.589392	0.967378
863.901869	0.965963
864.214303	0.964259
864.526696	0.964043
864.839045	0.961761
865.151353	0.960109
865.463619	0.962098
865.775842	0.961294
866.088023	0.962584
866.400162	0.962128
866.712258	0.961467
867.024313	0.962214
867.336325	0.961800
867.648296	0.962487
867.960224	0.962276
868.272110	0.961333
868.583954	0.963116
868.895755	0.962488
869.207515	0.959266
869.519233	0.958260
869.830909	0.960323
870.142542	0.961413
870.454134	0.961413
870.765684	0.959955
871.077191	0.956203
871.388657	0.957407
871.700081	0.957143
872.011463	0.957188
872.322803	0.957084
872.634101	0.956126
872.945357	0.953382
873.256571	0.952549
873.567744	0.950908
873.878874	0.952402
874.189963	0.950619
874.501010	0.950339
874.812015	0.948104
875.122979	0.949761
875.433900	0.952856
875.744780	0.952966
876.055618	0.950024
876.366415	0.948534
876.677169	0.948599
876.987882	0.950174
877.298554	0.949559
877.609183	0.946896
877.919771	0.943519
878.230317	0.941767
878.540822	0.938323
878.851285	0.932878
879.161707	0.925296
879.472087	0.912843
879.782425	0.896309
880.092722	0.861455
880.402977	0.807828
880.713191	0.745898
881.023363	0.684765
881.333494	0.650097
881.643583	0.622080
881.953631	0.621664
882.263637	0.651082
882.573602	0.689716
882.883526	0.716474
883.193408	0.740516
883.503248	0.764109
883.813048	0.792383
884.122806	0.821789
884.432522	0.846808
884.742197	0.867067
885.051831	0.877843
885.361424	0.889000
885.670975	0.901315
885.980485	0.911319
886.289954	0.916333
886.599382	0.922308
886.908768	0.926958
887.218113	0.932404
887.527417	0.937278
887.836680	0.939968
888.145901	0.943269
888.455082	0.944349
888.764221	0.948901
889.073319	0.951698
889.382376	0.951833
889.691392	0.951253
890.000366	0.951787
890.309300	0.953648
890.618193	0.950583
890.927044	0.949949
891.235855	0.949875
891.544625	0.949010
891.853353	0.949983
892.162041	0.947681
892.470687	0.941260
892.779293	0.936129
893.087858	0.932392
893.396381	0.923531
893.704864	0.910545
894.013306	0.885941
894.321707	0.859723
894.630068	0.843254
894.938387	0.838562
895.246665	0.839487
895.554903	0.852472
895.863100	0.866850
896.171256	0.884224
896.479371	0.903909
896.787446	0.916559
897.095480	0.922977
897.403473	0.926884
897.711425	0.930595
898.019336	0.938325
898.327207	0.940898
898.635038	0.942538
898.942827	0.943640
899.250576	0.946410
899.558284	0.951172
899.865952	0.952343
900.173579	0.953840
900.481165	0.952905
900.788711	0.957466
901.096216	0.959498
901.403681	0.959898
901.711105	0.962226
902.018489	0.962686
902.325832	0.961263
902.633135	0.959968
902.940397	0.954114
903.247619	0.941293
903.554800	0.915797
903.861941	0.874618
904.169041	0.838325
904.476101	0.819786
904.783121	0.820728
905.090100	0.837912
905.397039	0.860165
905.703938	0.882010
906.010796	0.902544
906.317614	0.920095
906.624391	0.931891
906.931129	0.942401
907.237826	0.950558
907.544483	0.957685
907.851099	0.960984
908.157675	0.967184
908.464211	0.968534
908.770707	0.972594
909.077163	0.972608
909.383578	0.972810
909.689954	0.974509
909.996289	0.975116
910.302584	0.977989
910.608839	0.979207
910.915054	0.976687
911.221229	0.976998
911.527363	0.977159
911.833458	0.976511
912.139513	0.975543
912.445527	0.973910
912.751502	0.972986
913.057436	0.971361
913.363331	0.969468
913.669186	0.965130
913.975000	0.959608
914.280775	0.953836
914.586510	0.946762
914.892205	0.932472
915.197859	0.909553
915.503475	0.881543
915.809050	0.862735
916.114585	0.855232
916.420081	0.852608
916.725536	0.848860
917.030952	0.857671
917.336328	0.872320
917.641665	0.887299
917.946961	0.902742
918.252218	0.915294
918.557435	0.925298
918.862612	0.933983
919.167750	0.939433
919.472848	0.945236
919.777906	0.950644
920.082925	0.955589
920.387904	0.959997
920.692843	0.962040
920.997743	0.962096
921.302603	0.967187
921.607423	0.968259
921.912204	0.970655
922.216946	0.970940
922.521647	0.971723
922.826310	0.973547
923.130932	0.975955
923.435516	0.977763
923.740059	0.977942
924.044564	0.978383
924.349028	0.979678
924.653454	0.982036
924.957840	0.984508
925.262186	0.983495
925.566493	0.983345
925.870761	0.985101
926.174989	0.986245
926.479178	0.987538
926.783328	0.989412
927.087438	0.987290
927.391509	0.988053
927.695541	0.989076
927.999533	0.989393
928.303486	0.989107
928.607400	0.990811
928.911275	0.988994
929.215110	0.990930
929.518906	0.990752
929.822663	0.989532
930.126381	0.990570
930.430060	0.989606
930.733699	0.989694
931.037299	0.989243
931.340861	0.990704
931.644383	0.989942
931.947866	0.989398
932.251309	0.990748
932.554714	0.989877
932.858080	0.990023
933.161407	0.989227
933.464694	0.991492
933.767943	0.989526
934.071153	0.990626
934.374323	0.991262
934.677455	0.990131
934.980548	0.991665
935.283602	0.989327
935.586617	0.990265
935.889593	0.989727
936.192530	0.990826
936.495428	0.990604
936.798287	0.990285
937.101108	0.990002
937.403890	0.988021
937.706632	0.988424
938.009336	0.987156
938.312002	0.984801
938.614628	0.983320
938.917216	0.982626
939.219765	0.980609
939.522275	0.982817
939.824747	0.981880
940.127179	0.982601
940.429573	0.982904
940.731929	0.983463
941.034246	0.983472
941.336524	0.985290
941.638763	0.985688
941.940964	0.985451
942.243126	0.986688
942.545250	0.986684
942.847335	0.986639
943.149381	0.987920
943.451389	0.987614
943.753359	0.986782
944.055290	0.990413
944.357182	0.988570
944.659036	0.988056
944.960851	0.989002
945.262628	0.989974
945.564367	0.990250
945.866067	0.989760
946.167729	0.990074
946.469352	0.989128
946.770937	0.988021
947.072484	0.990533
947.373992	0.989257
947.675462	0.989966
947.976893	0.988677
948.278286	0.989846
948.579641	0.990183
948.880958	0.990287
949.182236	0.990146
949.483476	0.990518
949.784678	0.989939
950.085841	0.991081
950.386967	0.990976
950.688054	0.990458
950.989103	0.989923
951.290114	0.988345
951.591087	0.989028
951.892021	0.989252
952.192917	0.987358
952.493776	0.987189
952.794596	0.987844
953.095378	0.987791
953.396122	0.987902
953.696828	0.985507
953.997496	0.989807
954.298126	0.990422
954.598718	0.990807
954.899272	0.990945
955.199788	0.990085
955.500266	0.991414
955.800706	0.991964
956.101108	0.993782
956.401472	0.993771
956.701798	0.994083
957.002087	0.992696
957.302337	0.993315
957.602550	0.995300
957.902724	0.994971
958.202861	0.995060
958.502960	0.996108
958.803022	0.993673
959.103045	0.994958
959.403031	0.996197
959.702979	0.996160
960.002889	0.995932
960.302762	0.994691
960.602596	0.995252
960.902393	0.994584
961.202153	0.995268
961.501875	0.996547
961.801559	0.996588
962.101205	0.995084
962.400814	0.996417
962.700385	0.995757
962.999918	0.996326
963.299414	0.995728
963.598873	0.995795
963.898293	0.996873
964.197677	0.995738
964.497022	0.996607
964.796331	0.996593
965.095601	0.996640
965.394835	0.996240
965.694030	0.995646
965.993189	0.996758
966.292309	0.995301
966.591393	0.998716
966.890439	0.995667
967.189447	0.997042
967.488419	0.997577
967.787353	0.995747
968.086249	0.996120
968.385108	0.995938
968.683930	0.997777
968.982714	0.997525
969.281462	0.996956
969.580172	0.995871
969.878844	0.996877
970.177480	0.995841
970.476078	0.997223
970.774639	0.997258
971.073162	0.997576
971.371649	0.996304
971.670098	0.996537
971.968510	0.997882
972.266885	0.996603
972.565223	0.996572
972.863524	0.996952
973.161788	0.995631
973.460014	0.997569
973.758204	0.995425
974.056356	0.996354
974.354471	0.993653
974.652550	0.995620
974.950591	0.995066
975.248595	0.996832
975.546563	0.996929
975.844493	0.997159
976.142386	0.996926
976.440243	0.998250
976.738062	0.997419
977.035845	0.998148
977.333590	0.996883
977.631299	0.998854
977.928971	0.997716
978.226606	0.996145
978.524204	0.995131
978.821765	0.997624
979.119290	0.998036
979.416777	0.996998
979.714228	0.996377
980.011642	0.996565
980.309020	0.996469
980.606360	0.997389
980.903664	0.997987
981.200931	0.995845
981.498162	0.995242
981.795356	0.995553
982.092513	0.993676
982.389633	0.995055
982.686717	0.991496
982.983764	0.991824
983.280775	0.990453
983.577749	0.989597
983.874686	0.991525
984.171587	0.991634
984.468451	0.994493
984.765279	0.994571
985.062070	0.993885
985.358824	0.995539
985.655543	0.994801
985.952224	0.996130
986.248869	0.996765
986.545478	0.997024
986.842050	0.998997
987.138586	0.994661
987.435086	0.997515
987.731549	0.998092
988.027975	0.997683
988.324366	0.997267
988.620719	0.996838
988.917037	0.997164
989.213318	0.998934
989.509563	0.998606
989.805772	0.998628
990.101944	0.998837
990.398080	0.998390
990.694180	0.997376
990.990244	0.997403
991.286271	0.998271
991.582262	0.998558
991.878217	0.998239
992.174136	0.998060
992.470019	0.998031
992.765865	0.998791
993.061676	0.998217
993.357450	0.997803
993.653188	0.997383
993.948890	0.997713
994.244556	0.997298
994.540186	0.998561
994.835780	0.996250
995.131337	0.998525
995.426859	0.996911
995.722345	0.996707
996.017795	0.995905
996.313208	0.996415
996.608586	0.995489
996.903928	0.996286
997.199234	0.994961
997.494504	0.997084
997.789738	0.995577
998.084936	0.995902
998.380099	0.998462
998.675225	0.997410
998.970316	0.996551
999.265371	0.997261
999.560390	0.996632
999.855373	0.998885
1000.150320	0.997370
1000.445232	0.998873
1000.740108	0.997402
1001.034948	0.999237
1001.329752	0.998273
1001.624521	1.000034
1001.919254	0.998264
1002.213951	0.999149
1002.508613	0.998485
1002.803239	0.999415
1003.097829	0.998370
1003.392384	0.999695
1003.686903	0.998085
1003.981386	0.998031
1004.275834	0.999223
1004.570246	0.999500
1004.864623	0.999382
1005.158964	0.999253
1005.453270	0.999032
1005.747540	0.997115
1006.041775	0.998902
1006.335974	0.998645
1006.630138	0.999493
1006.924266	0.999562
1007.218359	1.000166
1007.512416	0.999608
1007.806438	0.999545
1008.100425	0.999317
1008.394376	0.998744
1008.688292	0.998617
1008.982172	1.000474
1009.276017	0.999236
1009.569827	0.997933
1009.863602	0.998535
1010.157341	0.999286
1010.451045	0.999169
1010.744714	0.999580
1011.038347	0.999264
1011.331945	0.999189
1011.625508	0.997890
1011.919036	0.999604
1012.212528	0.998617
1012.505986	0.998736
1012.799408	0.998716
1013.092795	0.998941
1013.386147	0.999871
1013.679464	0.999762
1013.972745	0.998816
1014.265992	0.997450
1014.559204	0.998518
1014.852380	0.998467
1015.145521	0.998515
1015.438628	0.999266
1015.731699	0.998437
1016.024736	0.998520
1016.317737	0.998684
1016.610703	0.998306
1016.903635	0.999004
1017.196531	0.998651
1017.489393	1.000246
1017.782219	0.999193
1018.075011	0.998573
1018.367768	1.000145
1018.660490	0.999035
1018.953177	0.999035
1019.245829	0.999035
