Dividing Wavelength (nm)	Counts (n)	Blue Motor Position (mm): 0.000000	Red Motor Position (mm): 21.800000	
326.493990	1.001405
326.888308	1.001405
327.282561	1.001405
327.676750	0.999993
328.070874	0.999016
328.464933	1.000696
328.858929	0.999201
329.252859	1.000252
329.646726	0.999405
330.040528	1.000425
330.434265	0.998874
330.827938	1.000662
331.221547	0.999892
331.615091	1.000879
332.008571	1.000241
332.401986	1.000427
332.795338	1.000902
333.188625	0.998601
333.581847	1.000420
333.975006	0.999410
334.368100	0.999077
334.761129	0.999265
335.154095	1.000705
335.546996	0.999446
335.939833	0.993004
336.332606	0.994782
336.725315	0.993940
337.117960	0.995097
337.510540	0.993772
337.903056	0.994794
338.295508	0.993124
338.687896	0.994398
339.080220	0.993722
339.472480	0.995050
339.864676	0.993853
340.256807	0.994341
340.648875	0.995079
341.040879	0.994779
341.432818	0.993821
341.824694	0.994385
342.216506	0.995329
342.608253	0.994279
342.999937	0.993714
343.391557	0.994293
343.783113	0.995094
344.174605	0.993379
344.566033	0.995776
344.957397	0.993272
345.348697	0.995639
345.739934	0.993740
346.131106	0.993936
346.522215	0.994453
346.913260	0.994684
347.304241	0.994134
347.695159	0.994271
348.086012	0.994235
348.476802	0.995522
348.867528	0.994112
349.258191	0.993998
349.648789	0.993158
350.039324	0.993862
350.429796	0.994419
350.820203	0.994599
351.210548	0.994644
351.600828	0.993892
351.991045	0.994452
352.381198	0.993373
352.771288	0.994512
353.161314	0.993880
353.551276	0.996170
353.941175	0.994374
354.331010	0.993809
354.720782	0.994268
355.110490	0.995125
355.500135	0.994526
355.889717	0.994263
356.279235	0.993316
356.668689	0.994035
357.058080	0.994563
357.447408	0.995165
357.836672	0.993464
358.225873	0.995181
358.615010	0.994700
359.004084	0.994432
359.393095	0.995092
359.782043	0.994119
360.170927	0.996030
360.559748	0.995157
360.948505	0.994559
361.337199	0.994126
361.725830	0.994200
362.114398	0.993865
362.502903	0.994709
362.891344	0.993915
363.279722	0.994194
363.668037	0.994663
364.056289	0.993901
364.444478	0.995482
364.832603	0.994811
365.220665	0.994553
365.608665	0.994407
365.996601	0.994912
366.384474	0.995436
366.772284	0.993739
367.160031	0.994165
367.547715	0.992230
367.935336	0.995022
368.322893	0.993592
368.710388	0.993741
369.097820	0.993887
369.485189	0.994303
369.872495	0.993252
370.259738	0.992875
370.646918	0.993681
371.034035	0.994051
371.421090	0.994299
371.808081	0.993493
372.195010	0.994525
372.581875	0.995661
372.968678	0.995448
373.355418	0.994021
373.742096	0.994784
374.128710	0.995739
374.515262	0.992971
374.901751	0.996073
375.288177	0.994504
375.674540	0.995220
376.060841	0.993712
376.447079	0.995496
376.833254	0.994876
377.219367	0.995496
377.605417	0.994837
377.991404	0.995636
378.377329	0.994390
378.763191	0.996041
379.148991	0.995841
379.534727	0.995996
379.920402	0.996006
380.306013	0.995788
380.691563	0.996075
381.077049	0.995119
381.462474	0.994913
381.847835	0.995572
382.233134	0.995678
382.618371	0.996037
383.003545	0.996207
383.388657	0.994797
383.773706	0.996477
384.158693	0.995515
384.543618	0.996252
384.928480	0.996153
385.313280	0.996252
385.698017	0.997111
386.082692	0.997151
386.467305	0.996468
386.851856	0.996503
387.236344	0.996319
387.620770	0.995382
388.005133	0.995911
388.389435	0.997957
388.773674	0.995900
389.157851	0.996385
389.541965	0.996204
389.926018	0.996102
390.310008	0.996806
390.693936	0.995110
391.077802	0.997095
391.461606	0.995982
391.845348	0.995439
392.229027	0.997802
392.612645	0.996047
392.996200	0.997088
393.379694	0.996606
393.763125	0.997706
394.146494	0.996720
394.529801	0.996222
394.913047	0.996520
395.296230	0.996517
395.679351	0.996478
396.062410	0.996065
396.445408	0.997248
396.828343	0.996857
397.211217	0.996275
397.594028	0.997162
397.976778	0.997127
398.359466	0.996694
398.742092	0.996377
399.124656	0.995518
399.507158	0.996491
399.889598	0.995933
400.271977	0.997379
400.654294	0.997018
401.036549	0.996541
401.418742	0.996910
401.800874	0.996073
402.182944	0.996587
402.564952	0.996512
402.946898	0.997067
403.328783	0.996783
403.710606	0.996447
404.092367	0.996245
404.474067	0.997040
404.855705	0.996892
405.237282	0.996046
405.618797	0.995853
406.000250	0.995963
406.381642	0.997065
406.762972	0.996532
407.144240	0.996303
407.525447	0.996314
407.906593	0.996729
408.287677	0.997281
408.668700	0.997170
409.049661	0.995491
409.430560	0.997153
409.811399	0.994929
410.192176	0.995583
410.572891	0.996174
410.953545	0.995784
411.334138	0.995338
411.714669	0.995977
412.095139	0.995937
412.475547	0.997041
412.855894	0.996347
413.236180	0.996300
413.616405	0.995371
413.996568	0.997210
414.376670	0.996550
414.756711	0.994919
415.136691	0.994800
415.516609	0.995275
415.896466	0.994921
416.276262	0.994605
416.655997	0.995155
417.035670	0.993484
417.415283	0.993780
417.794834	0.992762
418.174324	0.993015
418.553753	0.992326
418.933121	0.991286
419.312428	0.989885
419.691674	0.988743
420.070859	0.987728
420.449983	0.986932
420.829045	0.985133
421.208047	0.984382
421.586988	0.983096
421.965867	0.979360
422.344686	0.978642
422.723444	0.975788
423.102141	0.974419
423.480777	0.971321
423.859352	0.968711
424.237866	0.965100
424.616319	0.962515
424.994712	0.959399
425.373044	0.956172
425.751314	0.952205
426.129524	0.950351
426.507673	0.944914
426.885762	0.941106
427.263789	0.937075
427.641756	0.933951
428.019662	0.929173
428.397508	0.922802
428.775292	0.917492
429.153016	0.911925
429.530679	0.909210
429.908282	0.902272
430.285824	0.897815
430.663305	0.887374
431.040726	0.885096
431.418086	0.881310
431.795385	0.871617
432.172624	0.863817
432.549802	0.857759
432.926920	0.851519
433.303977	0.843101
433.680974	0.836140
434.057910	0.827491
434.434786	0.819626
434.811601	0.812360
435.188355	0.798825
435.565050	0.794082
435.941683	0.787170
436.318257	0.772650
436.694770	0.763669
437.071222	0.754504
437.447614	0.748042
437.823946	0.743484
438.200218	0.729516
438.576429	0.725509
438.952580	0.713083
439.328670	0.702880
439.704700	0.698357
440.080670	0.690692
440.456580	0.670340
440.832429	0.665900
441.208218	0.664933
441.583947	0.649772
441.959616	0.641295
442.335224	0.636344
442.710773	0.622826
443.086261	0.612073
443.461689	0.614174
443.837057	0.599070
444.212365	0.583746
444.587612	0.582259
444.962800	0.567113
445.337927	0.560995
445.712995	0.573034
446.088002	0.537333
446.462949	0.539213
446.837837	0.535708
447.212664	0.521057
447.587431	0.507286
447.962139	0.477504
448.336786	0.438742
448.711374	0.442443
449.085901	0.471670
449.460369	0.469087
449.834776	0.466558
450.209124	0.444195
450.583412	0.432118
450.957640	0.422730
451.331808	0.427074
451.705917	0.442883
452.079965	0.443376
452.453954	0.428241
452.827883	0.430494
453.201752	0.422359
453.575562	0.429586
453.949311	0.415413
454.323001	0.418704
454.696632	0.411824
455.070202	0.401868
455.443713	0.392015
455.817164	0.384889
456.190556	0.378308
456.563888	0.373055
456.937160	0.368753
457.310373	0.383262
457.683526	0.380211
458.056619	0.384636
458.429653	0.383122
458.802628	0.385362
459.175542	0.378440
459.548398	0.360344
459.921194	0.352182
460.293930	0.351516
460.666607	0.328634
461.039224	0.316417
461.411782	0.311418
461.784280	0.309951
462.156719	0.313001
462.529099	0.316212
462.901419	0.331564
463.273680	0.335652
463.645882	0.334908
464.018024	0.340377
464.390106	0.332338
464.762130	0.317600
465.134094	0.300859
465.505999	0.269779
465.877845	0.240264
466.249631	0.226621
466.621358	0.234108
466.993026	0.247613
467.364634	0.253567
467.736184	0.262123
468.107674	0.270746
468.479105	0.269359
468.850477	0.276200
469.221790	0.282851
469.593043	0.293192
469.964238	0.298042
470.335373	0.297103
470.706449	0.294982
471.077467	0.295853
471.448425	0.258004
471.819324	0.233649
472.190164	0.232930
472.560945	0.261329
472.931667	0.283784
473.302330	0.287686
473.672934	0.299480
474.043479	0.287585
474.413965	0.289568
474.784393	0.292892
475.154761	0.288228
475.525070	0.284904
475.895321	0.291090
476.265513	0.285013
476.635645	0.280291
477.005719	0.280253
477.375734	0.276945
477.745691	0.270471
478.115588	0.266936
478.485427	0.259886
478.855207	0.247164
479.224928	0.229558
479.594591	0.218019
479.964194	0.221140
480.333739	0.222385
480.703226	0.224016
481.072653	0.222353
481.442022	0.217977
481.811333	0.214427
482.180584	0.218074
482.549777	0.223269
482.918912	0.226393
483.287988	0.226266
483.657005	0.225843
484.025964	0.232675
484.394864	0.229662
484.763706	0.230412
485.132489	0.235197
485.501213	0.236159
485.869879	0.234356
486.238487	0.237647
486.607036	0.235267
486.975527	0.240008
487.343959	0.235905
487.712333	0.234891
488.080648	0.236535
488.448905	0.235554
488.817104	0.236777
489.185244	0.231351
489.553326	0.228058
489.921350	0.218189
490.289315	0.200772
490.657222	0.195721
491.025070	0.196871
491.392861	0.198833
491.760593	0.204478
492.128267	0.209988
492.495883	0.215704
492.863440	0.221829
493.230939	0.228304
493.598380	0.229263
493.965763	0.231697
494.333088	0.234248
494.700354	0.235422
495.067563	0.234103
495.434713	0.237600
495.801805	0.235292
496.168839	0.236849
496.535815	0.238166
496.902733	0.238086
497.269593	0.239730
497.636395	0.237510
498.003139	0.237797
498.369825	0.240763
498.736453	0.237199
499.103023	0.238649
499.469535	0.238086
499.835989	0.238395
500.202385	0.239270
500.568723	0.242223
500.935003	0.237603
501.301226	0.241754
501.667390	0.235889
502.033497	0.234235
502.399546	0.237284
502.765537	0.238739
503.131470	0.237458
503.497345	0.233521
503.863163	0.242282
504.228923	0.235438
504.594625	0.233872
504.960269	0.239488
505.325856	0.234646
505.691385	0.239052
506.056856	0.235972
506.422270	0.235036
506.787625	0.237456
507.152924	0.235061
507.518164	0.235763
507.883347	0.237258
508.248472	0.238913
508.613540	0.233959
508.978550	0.236575
509.343503	0.236947
509.708398	0.234554
510.073236	0.232132
510.438016	0.232408
510.802738	0.233135
511.167403	0.231871
511.532010	0.234348
511.896561	0.229364
512.261053	0.228091
512.625488	0.230447
512.989866	0.230948
513.354186	0.231227
513.718449	0.232689
514.082655	0.229362
514.446803	0.231033
514.810894	0.228880
515.174927	0.231779
515.538904	0.231172
515.902822	0.227996
516.266684	0.230585
516.630488	0.231769
516.994235	0.230335
517.357925	0.229376
517.721558	0.227609
518.085133	0.227143
518.448651	0.227349
518.812112	0.229432
519.175516	0.229123
519.538863	0.226710
519.902152	0.228309
520.265385	0.225205
520.628560	0.226870
520.991678	0.227600
521.354739	0.226300
521.717743	0.227570
522.080690	0.228013
522.443580	0.225353
522.806413	0.226406
523.169189	0.225654
523.531908	0.224357
523.894569	0.228104
524.257174	0.227970
524.619722	0.225647
524.982213	0.226748
525.344647	0.225856
525.707025	0.226502
526.069345	0.224691
526.431608	0.226331
526.793815	0.224368
527.155964	0.228465
527.518057	0.227518
527.880093	0.228627
528.242072	0.226987
528.603995	0.228842
528.965860	0.230696
529.327669	0.229504
529.689421	0.230283
530.051117	0.231321
530.412755	0.228784
530.774337	0.231324
531.135862	0.231512
531.497331	0.231067
531.858743	0.233684
532.220098	0.230553
532.581396	0.232979
532.942638	0.233607
533.303824	0.234516
533.664953	0.234417
534.026025	0.236137
534.387040	0.233995
534.747999	0.234036
535.108902	0.232956
535.469748	0.237822
535.830537	0.235787
536.191270	0.236048
536.551947	0.235666
536.912567	0.235482
537.273131	0.237631
537.633638	0.237625
537.994089	0.238100
538.354483	0.238719
538.714821	0.235791
539.075103	0.235692
539.435328	0.236349
539.795497	0.240301
540.155609	0.236987
540.515665	0.234961
540.875665	0.240718
541.235609	0.239058
541.595496	0.239367
541.955328	0.235675
542.315102	0.238444
542.674821	0.239460
543.034483	0.239538
543.394090	0.239206
543.753640	0.241057
544.113134	0.236259
544.472571	0.239467
544.831953	0.236262
545.191278	0.240301
545.550548	0.239940
545.909761	0.236717
546.268918	0.237316
546.628019	0.236039
546.987064	0.238263
547.346053	0.240231
547.704986	0.238026
548.063863	0.238335
548.422684	0.238647
548.781449	0.240612
549.140158	0.238334
549.498811	0.240706
549.857408	0.243958
550.215949	0.238948
550.574434	0.241874
550.932864	0.240051
551.291237	0.238618
551.649555	0.240158
552.007817	0.239413
552.366022	0.240335
552.724173	0.240568
553.082267	0.241065
553.440305	0.237892
553.798288	0.242430
554.156215	0.239020
554.514086	0.239659
554.871902	0.242763
555.229661	0.242068
555.587365	0.242429
555.945014	0.244957
556.302606	0.241825
556.660143	0.244340
557.017625	0.241038
557.375050	0.243186
557.732421	0.240192
558.089735	0.242304
558.446994	0.242269
558.804197	0.241532
559.161345	0.241387
559.518437	0.244857
559.875474	0.242586
560.232455	0.242073
560.589381	0.243153
560.946251	0.243315
561.303065	0.240743
561.659825	0.242268
562.016528	0.243904
562.373177	0.246606
562.729770	0.243873
563.086307	0.246019
563.442789	0.243757
563.799216	0.246696
564.155587	0.245367
564.511904	0.246567
564.868164	0.246594
565.224370	0.246345
565.580520	0.248181
565.936615	0.248065
566.292654	0.251120
566.648638	0.247925
567.004567	0.249368
567.360441	0.249625
567.716260	0.251849
568.072023	0.249344
568.427732	0.250340
568.783385	0.252743
569.138982	0.250631
569.494525	0.250202
569.850013	0.253015
570.205445	0.251438
570.560823	0.254186
570.916145	0.256305
571.271412	0.254532
571.626625	0.255997
571.981782	0.256046
572.336884	0.257284
572.691931	0.256885
573.046923	0.258169
573.401860	0.259473
573.756743	0.261045
574.111570	0.259489
574.466342	0.260417
574.821059	0.259495
575.175722	0.262291
575.530330	0.261864
575.884882	0.262130
576.239380	0.264285
576.593823	0.264923
576.948211	0.264112
577.302544	0.267911
577.656823	0.266715
578.011047	0.267430
578.365216	0.267906
578.719330	0.269748
579.073389	0.269768
579.427394	0.271074
579.781344	0.271860
580.135239	0.273170
580.489080	0.272772
580.842866	0.276000
581.196597	0.276063
581.550273	0.274415
581.903895	0.275310
582.257463	0.273474
582.610975	0.276923
582.964434	0.276520
583.317837	0.278836
583.671186	0.279271
584.024481	0.279437
584.377721	0.281790
584.730906	0.282395
585.084037	0.281552
585.437113	0.283305
585.790135	0.282582
586.143103	0.285701
586.496016	0.287122
586.848874	0.284237
587.201679	0.284803
587.554428	0.288379
587.907124	0.287157
588.259765	0.287507
588.612352	0.288118
588.964884	0.292029
589.317362	0.291528
589.669786	0.291579
590.022155	0.290025
590.374470	0.289429
590.726731	0.291452
591.078937	0.296205
591.431090	0.292813
591.783188	0.296913
592.135232	0.296849
592.487222	0.297112
592.839157	0.295334
593.191038	0.297703
593.542866	0.299198
593.894639	0.303080
594.246358	0.300486
594.598022	0.300277
594.949633	0.304062
595.301190	0.304864
595.652692	0.303921
596.004141	0.300170
596.355535	0.308240
596.706876	0.308480
597.058162	0.311165
597.409395	0.308289
597.760573	0.306296
598.111698	0.309248
598.462768	0.310150
598.813785	0.311335
599.164748	0.312409
599.515657	0.312861
599.866511	0.316131
600.217312	0.311175
600.568060	0.316774
600.918753	0.313100
601.269392	0.313747
601.619978	0.316886
601.970510	0.314860
602.320988	0.315106
602.671412	0.312796
603.021783	0.315504
603.372100	0.316726
603.722363	0.316420
604.072572	0.316973
604.422728	0.317079
604.772830	0.319073
605.122878	0.318836
605.472872	0.319128
605.822813	0.317076
606.172701	0.320053
606.522534	0.317153
606.872314	0.317292
607.222041	0.318027
607.571714	0.316807
607.921333	0.318037
608.270899	0.317676
608.620411	0.314297
608.969870	0.318495
609.319276	0.318288
609.668627	0.318305
610.017926	0.316505
610.367171	0.315419
610.716362	0.315994
611.065500	0.316147
611.414585	0.314853
611.763616	0.315999
612.112594	0.315882
612.461518	0.315315
612.810389	0.313196
613.159207	0.315238
613.507971	0.317507
613.856682	0.313012
614.205340	0.314663
614.553945	0.311409
614.902496	0.315621
615.250994	0.313500
615.599439	0.314242
615.947830	0.313493
616.296169	0.314551
616.644454	0.313662
616.992686	0.313896
617.340864	0.311836
617.688990	0.315781
618.037063	0.311973
618.385082	0.313925
618.733048	0.310835
619.080961	0.313178
619.428821	0.312317
619.776628	0.311877
620.124382	0.314271
620.472083	0.314045
620.819731	0.313748
621.167326	0.317744
621.514868	0.317256
621.862357	0.321626
622.209793	0.321270
622.557176	0.323251
622.904506	0.324674
623.251783	0.326645
623.599007	0.329125
623.946179	0.328865
624.293297	0.330392
624.640363	0.334763
624.987376	0.335041
625.334336	0.337615
625.681243	0.339728
626.028097	0.340157
626.374899	0.341747
626.721647	0.341595
627.068343	0.344942
627.414987	0.345830
627.761577	0.348339
628.108115	0.346445
628.454600	0.351367
628.801032	0.348900
629.147412	0.351079
629.493739	0.351164
629.840014	0.354476
630.186236	0.351772
630.532405	0.357363
630.878521	0.354623
631.224585	0.356684
631.570597	0.360463
631.916556	0.359120
632.262462	0.359436
632.608316	0.361135
632.954117	0.362003
633.299866	0.363048
633.645562	0.363451
633.991206	0.367426
634.336797	0.370510
634.682336	0.372807
635.027823	0.374643
635.373257	0.374881
635.718639	0.378524
636.063968	0.377821
636.409245	0.383603
636.754470	0.383970
637.099642	0.386483
637.444762	0.389540
637.789829	0.389128
638.134845	0.392385
638.479808	0.393321
638.824719	0.392863
639.169577	0.397016
639.514383	0.396052
639.859137	0.400282
640.203839	0.399910
640.548489	0.400490
640.893086	0.401820
641.237632	0.403786
641.582125	0.402031
641.926566	0.403221
642.270955	0.403798
642.615292	0.404027
642.959576	0.403066
643.303809	0.403700
643.647990	0.403327
643.992118	0.403549
644.336195	0.407270
644.680219	0.405512
645.024192	0.406319
645.368112	0.399936
645.711981	0.398679
646.055797	0.394073
646.399562	0.396422
646.743274	0.388522
647.086935	0.385942
647.430544	0.386036
647.774101	0.385145
648.117606	0.385082
648.461059	0.385439
648.804460	0.387287
649.147810	0.393007
649.491108	0.394720
649.834354	0.396125
650.177548	0.401535
650.520690	0.406718
650.863781	0.407546
651.206820	0.407246
651.549807	0.412183
651.892742	0.415546
652.235626	0.415558
652.578458	0.416216
652.921238	0.422697
653.263967	0.420698
653.606644	0.424341
653.949269	0.424204
654.291843	0.427812
654.634365	0.424217
654.976836	0.427714
655.319255	0.428048
655.661622	0.429059
656.003938	0.429455
656.346203	0.432847
656.688416	0.430439
657.030577	0.434175
657.372687	0.436086
657.714746	0.436969
658.056753	0.433245
658.398708	0.437443
658.740612	0.438672
659.082465	0.435024
659.424266	0.435184
659.766016	0.434770
660.107715	0.437055
660.449362	0.435973
660.790958	0.437021
661.132503	0.437460
661.473996	0.435280
661.815438	0.435712
662.156829	0.435770
662.498168	0.436948
662.839456	0.438112
663.180693	0.436340
663.521879	0.435814
663.863013	0.437101
664.204097	0.435903
664.545129	0.432359
664.886110	0.432880
665.227040	0.429636
665.567918	0.432676
665.908746	0.430525
666.249522	0.430168
666.590248	0.431655
666.930922	0.429646
667.271545	0.428513
667.612118	0.428726
667.952639	0.430483
668.293109	0.428620
668.633528	0.431464
668.973896	0.431234
669.314213	0.432076
669.654480	0.433391
669.994695	0.434169
670.334859	0.434687
670.674973	0.435011
671.015035	0.434748
671.355047	0.434766
671.695008	0.436102
672.034918	0.437496
672.374777	0.437031
672.714585	0.437844
673.054342	0.437857
673.394049	0.438686
673.733705	0.436048
674.073310	0.437578
674.412864	0.440544
674.752368	0.441304
675.091820	0.440965
675.431223	0.445412
675.770574	0.445316
676.109875	0.448709
676.449125	0.448434
676.788324	0.450614
677.127473	0.455687
677.466571	0.455974
677.805619	0.457008
678.144616	0.458111
678.483562	0.459534
678.822458	0.462372
679.161303	0.463437
679.500098	0.464335
679.838842	0.465636
680.177535	0.465270
680.516179	0.463991
680.854771	0.462643
681.193314	0.456236
681.531805	0.447844
681.870247	0.435772
682.208638	0.428556
682.546978	0.427917
682.885268	0.429427
683.223508	0.435513
683.561697	0.439662
683.899836	0.442021
684.237925	0.445612
684.575963	0.447720
684.913951	0.450770
685.251889	0.446419
685.589776	0.449215
685.927614	0.450994
686.265401	0.445808
686.603137	0.446924
686.940824	0.440680
687.278460	0.439289
687.616046	0.437757
687.953582	0.433007
688.291068	0.434419
688.628504	0.430438
688.965889	0.432396
689.303224	0.436474
689.640510	0.440730
689.977745	0.446100
690.314930	0.454642
690.652065	0.459192
690.989150	0.466717
691.326185	0.473153
691.663170	0.476964
692.000105	0.484765
692.336990	0.491233
692.673825	0.494187
693.010610	0.501294
693.347345	0.506728
693.684030	0.508004
694.020665	0.512735
694.357251	0.521093
694.693786	0.521130
695.030272	0.525711
695.366707	0.528758
695.703093	0.531970
696.039429	0.530204
696.375716	0.531877
696.711952	0.534273
697.048139	0.536380
697.384276	0.538802
697.720363	0.536803
698.056400	0.536004
698.392388	0.541109
698.728326	0.544301
699.064214	0.547187
699.400053	0.547359
699.735842	0.550952
700.071581	0.554342
700.407270	0.556905
700.742910	0.559111
701.078501	0.565892
701.414042	0.566153
701.749533	0.569080
702.084974	0.578250
702.420366	0.570527
702.755709	0.577751
703.091002	0.586178
703.426246	0.579598
703.761440	0.585333
704.096584	0.589984
704.431679	0.587030
704.766725	0.589710
705.101721	0.590751
705.436668	0.586584
705.771565	0.594113
706.106413	0.590198
706.441212	0.585438
706.775961	0.584061
707.110661	0.587739
707.445311	0.583216
707.779913	0.580753
708.114465	0.579538
708.448967	0.576223
708.783421	0.567585
709.117825	0.562791
709.452180	0.563057
709.786485	0.556197
710.120742	0.547434
710.454949	0.548536
710.789107	0.540588
711.123216	0.531705
711.457275	0.533526
711.791286	0.524201
712.125247	0.523172
712.459159	0.533320
712.793023	0.526046
713.126837	0.530834
713.460602	0.531231
713.794318	0.540701
714.127985	0.539173
714.461602	0.549228
714.795171	0.552702
715.128691	0.560076
715.462162	0.568717
715.795584	0.573499
716.128957	0.576257
716.462281	0.582765
716.795556	0.586133
717.128782	0.591501
717.461960	0.601376
717.795088	0.599788
718.128167	0.605507
718.461198	0.614322
718.794180	0.614952
719.127113	0.618064
719.459997	0.621557
719.792833	0.628126
720.125619	0.629301
720.458357	0.635111
720.791046	0.634197
721.123686	0.637607
721.456278	0.645106
721.788821	0.641509
722.121315	0.645377
722.453761	0.649846
722.786158	0.648440
723.118506	0.644275
723.450805	0.652678
723.783056	0.648693
724.115259	0.645502
724.447412	0.645510
724.779518	0.647232
725.111574	0.645290
725.443582	0.641001
725.775542	0.642684
726.107453	0.635569
726.439315	0.634775
726.771129	0.633854
727.102895	0.627581
727.434612	0.619922
727.766281	0.619020
728.097901	0.616561
728.429473	0.616624
728.760996	0.615409
729.092471	0.615642
729.423897	0.619860
729.755276	0.618904
730.086606	0.618753
730.417887	0.612533
730.749120	0.604220
731.080305	0.594384
731.411442	0.590507
731.742530	0.595548
732.073570	0.595313
732.404562	0.587143
732.735506	0.588712
733.066401	0.593589
733.397249	0.603118
733.728048	0.613736
734.058798	0.626655
734.389501	0.637016
734.720156	0.647015
735.050762	0.654835
735.381320	0.655705
735.711831	0.665050
736.042293	0.669795
736.372707	0.666560
736.703073	0.670205
737.033391	0.672896
737.363661	0.669352
737.693883	0.665452
738.024056	0.663551
738.354182	0.663334
738.684260	0.653736
739.014290	0.648604
739.344272	0.650186
739.674207	0.643774
740.004093	0.642719
740.333931	0.644179
740.663722	0.643404
740.993464	0.644095
741.323159	0.647774
741.652806	0.652581
741.982405	0.658470
742.311956	0.661913
742.641460	0.664445
742.970915	0.668256
743.300323	0.675676
743.629683	0.681950
743.958996	0.683668
744.288260	0.689245
744.617477	0.694063
744.946647	0.695397
745.275768	0.700601
745.604842	0.700675
745.933869	0.711170
746.262847	0.711091
746.591778	0.705312
746.920662	0.710939
747.249498	0.717404
747.578286	0.707990
747.907027	0.704775
748.235720	0.705420
748.564365	0.700023
748.892963	0.699725
749.221514	0.702720
749.550017	0.709003
749.878473	0.707481
750.206881	0.714311
750.535242	0.716148
750.863555	0.715083
751.191821	0.716749
751.520039	0.719794
751.848210	0.724683
752.176334	0.716997
752.504411	0.716794
752.832440	0.724286
753.160421	0.727575
753.488356	0.726483
753.816243	0.723843
754.144082	0.732733
754.471875	0.735473
754.799620	0.730714
755.127318	0.732733
755.454969	0.732603
755.782572	0.732122
756.110129	0.736912
756.437638	0.739343
756.765100	0.735891
757.092515	0.734066
757.419882	0.733296
757.747203	0.738422
758.074477	0.737831
758.401703	0.734255
758.728882	0.730422
759.056014	0.729384
759.383099	0.727777
759.710138	0.729663
760.037129	0.725563
760.364073	0.719541
760.690970	0.721772
761.017820	0.727591
761.344623	0.723361
761.671379	0.714053
761.998088	0.702642
762.324751	0.679956
762.651366	0.638807
762.977935	0.571402
763.304456	0.519144
763.630931	0.509417
763.957359	0.548444
764.283740	0.593291
764.610074	0.621261
764.936362	0.651472
765.262602	0.678430
765.588796	0.699212
765.914943	0.717724
766.241044	0.735598
766.567097	0.741113
766.893104	0.750915
767.219064	0.758214
767.544978	0.764542
767.870845	0.777452
768.196665	0.781708
768.522438	0.779677
768.848165	0.780786
769.173846	0.789274
769.499479	0.794134
769.825066	0.797315
770.150607	0.803227
770.476101	0.797684
770.801548	0.799219
771.126949	0.809319
771.452303	0.813728
771.777611	0.813668
772.102872	0.812768
772.428087	0.817113
772.753256	0.821856
773.078378	0.823129
773.403453	0.832762
773.728482	0.836090
774.053465	0.830339
774.378401	0.834358
774.703291	0.841086
775.028135	0.841160
775.352932	0.844135
775.677683	0.845810
776.002388	0.846716
776.327046	0.845383
776.651658	0.849528
776.976224	0.852487
777.300743	0.852408
777.625216	0.854768
777.949643	0.856579
778.274024	0.857546
778.598359	0.858466
778.922647	0.857076
779.246889	0.858088
779.571086	0.861796
779.895236	0.865015
780.219339	0.861083
780.543397	0.858037
780.867409	0.856112
781.191374	0.858975
781.515294	0.859466
781.839167	0.859050
782.162995	0.861699
782.486776	0.860194
782.810511	0.860375
783.134201	0.863760
783.457844	0.860611
783.781441	0.864206
784.104993	0.870217
784.428498	0.870548
784.751958	0.866217
785.075372	0.868178
785.398739	0.873137
785.722061	0.869386
786.045337	0.864065
786.368568	0.869320
786.691752	0.871954
787.014891	0.856631
787.337983	0.849072
787.661030	0.841166
787.984031	0.823487
788.306987	0.809882
788.629897	0.813301
788.952760	0.816993
789.275579	0.820951
789.598351	0.836369
789.921078	0.849882
790.243759	0.850764
790.566395	0.857003
790.888984	0.863145
791.211529	0.868432
791.534027	0.872081
791.856480	0.873999
792.178888	0.879171
792.501249	0.882007
792.823566	0.883458
793.145836	0.883414
793.468062	0.884548
793.790241	0.883698
794.112375	0.882072
794.434464	0.878127
794.756507	0.877211
795.078505	0.877038
795.400457	0.871598
795.722364	0.859678
796.044226	0.852415
796.366042	0.851869
796.687812	0.854606
797.009538	0.851921
797.331218	0.854790
797.652852	0.859025
797.974442	0.864412
798.295986	0.864317
798.617484	0.865805
798.938938	0.870677
799.260346	0.875985
799.581709	0.878207
799.903026	0.879899
800.224299	0.880638
800.545526	0.883843
800.866708	0.888700
801.187845	0.892058
801.508936	0.892679
801.829983	0.890034
802.150984	0.892645
802.471940	0.898090
802.792851	0.896958
803.113717	0.897228
803.434538	0.896082
803.755314	0.898410
804.076045	0.900681
804.396731	0.899462
804.717372	0.899375
805.037967	0.902358
805.358518	0.899649
805.679024	0.895959
805.999485	0.896761
806.319901	0.897349
806.640272	0.897740
806.960598	0.896264
807.280879	0.893689
807.601115	0.891316
807.921306	0.896154
808.241453	0.895742
808.561554	0.894223
808.881611	0.892838
809.201623	0.897170
809.521590	0.897479
809.841513	0.897119
810.161390	0.895801
810.481223	0.898609
810.801011	0.901189
811.120755	0.903262
811.440453	0.901831
811.760107	0.900889
812.079716	0.899345
812.399281	0.903805
812.718801	0.906613
813.038276	0.907692
813.357707	0.906921
813.677093	0.904168
813.996434	0.907266
814.315731	0.908784
814.634983	0.909651
814.954191	0.908434
815.273354	0.905100
815.592473	0.902126
815.911547	0.900840
816.230577	0.898941
816.549562	0.896435
816.868502	0.896722
817.187399	0.893025
817.506250	0.887918
817.825058	0.890350
818.143821	0.887588
818.462539	0.881193
818.781213	0.873550
819.099843	0.862930
819.418429	0.846450
819.736970	0.829965
820.055466	0.810429
820.373919	0.784033
820.692327	0.751807
821.010691	0.717389
821.329011	0.640541
821.647286	0.524455
821.965517	0.411470
822.283704	0.368514
822.601847	0.370222
822.919945	0.405241
823.237999	0.439097
823.556010	0.485385
823.873976	0.541867
824.191897	0.591681
824.509775	0.634893
824.827609	0.679185
825.145398	0.702307
825.463144	0.705471
825.780845	0.688507
826.098502	0.669425
826.416116	0.623902
826.733685	0.579689
827.051210	0.571518
827.368692	0.586030
827.686129	0.623038
828.003522	0.676107
828.320872	0.722893
828.638177	0.766684
828.955439	0.800073
829.272656	0.822045
829.589830	0.839442
829.906960	0.854877
830.224046	0.867770
830.541088	0.877684
830.858086	0.881293
831.175041	0.888111
831.491952	0.886413
831.808819	0.883979
832.125642	0.877485
832.442421	0.862724
832.759157	0.840761
833.075849	0.795500
833.392497	0.730507
833.709101	0.690043
834.025662	0.699180
834.342179	0.731639
834.658653	0.770094
834.975083	0.806388
835.291469	0.832854
835.607811	0.854405
835.924110	0.869470
836.240366	0.887551
836.556578	0.901835
836.872746	0.909013
837.188871	0.914560
837.504952	0.919788
837.820990	0.925409
838.136984	0.926973
838.452935	0.930608
838.768842	0.931851
839.084706	0.925170
839.400526	0.900212
839.716303	0.858503
840.032037	0.836601
840.347727	0.840398
840.663373	0.859321
840.978977	0.880569
841.294537	0.902246
841.610054	0.919205
841.925527	0.926198
842.240957	0.933215
842.556344	0.940336
842.871687	0.946275
843.186987	0.949983
843.502244	0.950432
843.817458	0.951832
844.132629	0.954983
844.447756	0.960515
844.762840	0.960260
845.077881	0.959400
845.392879	0.960165
845.707833	0.964645
846.022745	0.964631
846.337613	0.964347
846.652438	0.967255
846.967221	0.964383
847.281960	0.964916
847.596656	0.967967
847.911309	0.966301
848.225919	0.966800
848.540485	0.968726
848.855009	0.969852
849.169490	0.968032
849.483928	0.968660
849.798323	0.969612
850.112675	0.971215
850.426984	0.969560
850.741251	0.969711
851.055474	0.969986
851.369654	0.967785
851.683792	0.969224
851.997887	0.969333
852.311938	0.970994
852.625947	0.970582
852.939914	0.968621
853.253837	0.970349
853.567718	0.971273
853.881555	0.970427
854.195350	0.969039
854.509103	0.970354
854.822812	0.969968
855.136479	0.970226
855.450103	0.970297
855.763685	0.968330
856.077224	0.968430
856.390720	0.970894
856.704173	0.970110
857.017584	0.968211
857.330953	0.967137
857.644278	0.968316
857.957561	0.968498
858.270802	0.968007
858.584000	0.968822
858.897155	0.966540
859.210268	0.968626
859.523339	0.969261
859.836367	0.971018
860.149352	0.971560
860.462295	0.968089
860.775195	0.970083
861.088054	0.969108
861.400869	0.970265
861.713642	0.971465
862.026373	0.969706
862.339062	0.970489
862.651708	0.969422
862.964312	0.968199
863.276873	0.968974
863.589392	0.968789
863.901869	0.966483
864.214303	0.964699
864.526696	0.962634
864.839045	0.963151
865.151353	0.961596
865.463619	0.963357
865.775842	0.962484
866.088023	0.962404
866.400162	0.962347
866.712258	0.962835
867.024313	0.963552
867.336325	0.963576
867.648296	0.963619
867.960224	0.962429
868.272110	0.961619
868.583954	0.964358
868.895755	0.963665
869.207515	0.961478
869.519233	0.959336
869.830909	0.960861
870.142542	0.962521
870.454134	0.962705
870.765684	0.961411
871.077191	0.957942
871.388657	0.959559
871.700081	0.958029
872.011463	0.958623
872.322803	0.958413
872.634101	0.956565
872.945357	0.954891
873.256571	0.953548
873.567744	0.953142
873.878874	0.954271
874.189963	0.952274
874.501010	0.950736
874.812015	0.950195
875.122979	0.951801
875.433900	0.953247
875.744780	0.953645
876.055618	0.950920
876.366415	0.949828
876.677169	0.949347
876.987882	0.951871
877.298554	0.951226
877.609183	0.948065
877.919771	0.944572
878.230317	0.943081
878.540822	0.940496
878.851285	0.935619
879.161707	0.927335
879.472087	0.915092
879.782425	0.898374
880.092722	0.866329
880.402977	0.813515
880.713191	0.753010
881.023363	0.694580
881.333494	0.660609
881.643583	0.632672
881.953631	0.632810
882.263637	0.660803
882.573602	0.700857
882.883526	0.725947
883.193408	0.749750
883.503248	0.772352
883.813048	0.799228
884.122806	0.828488
884.432522	0.850961
884.742197	0.871326
885.051831	0.881552
885.361424	0.892458
885.670975	0.903252
885.980485	0.913294
886.289954	0.919262
886.599382	0.924261
886.908768	0.928843
887.218113	0.934689
887.527417	0.939162
887.836680	0.942576
888.145901	0.943218
888.455082	0.946686
888.764221	0.950128
889.073319	0.952976
889.382376	0.953008
889.691392	0.954108
890.000366	0.952685
890.309300	0.954017
890.618193	0.954264
890.927044	0.952799
891.235855	0.951299
891.544625	0.952037
891.853353	0.952149
892.162041	0.949675
892.470687	0.943841
892.779293	0.938192
893.087858	0.934969
893.396381	0.927277
893.704864	0.913611
894.013306	0.889804
894.321707	0.862860
894.630068	0.848864
894.938387	0.844746
895.246665	0.845808
895.554903	0.858460
895.863100	0.871147
896.171256	0.888065
896.479371	0.907682
896.787446	0.920808
897.095480	0.925337
897.403473	0.929129
897.711425	0.932604
898.019336	0.940686
898.327207	0.942991
898.635038	0.945732
898.942827	0.946514
899.250576	0.948162
899.558284	0.952129
899.865952	0.954273
900.173579	0.955907
900.481165	0.955374
900.788711	0.960181
901.096216	0.961436
901.403681	0.963134
901.711105	0.963918
902.018489	0.963985
902.325832	0.963209
902.633135	0.961150
902.940397	0.955784
903.247619	0.943751
903.554800	0.918425
903.861941	0.879112
904.169041	0.844666
904.476101	0.827421
904.783121	0.828738
905.090100	0.844050
905.397039	0.864725
905.703938	0.887415
906.010796	0.906550
906.317614	0.923309
906.624391	0.934245
906.931129	0.943481
907.237826	0.952172
907.544483	0.959356
907.851099	0.962669
908.157675	0.967538
908.464211	0.969858
908.770707	0.973263
909.077163	0.973613
909.383578	0.973879
909.689954	0.974139
909.996289	0.975805
910.302584	0.977065
910.608839	0.979195
910.915054	0.978660
911.221229	0.978076
911.527363	0.976937
911.833458	0.977486
912.139513	0.977110
912.445527	0.976304
912.751502	0.975479
913.057436	0.973137
913.363331	0.970342
913.669186	0.966614
913.975000	0.962164
914.280775	0.955448
914.586510	0.949787
914.892205	0.935610
915.197859	0.915266
915.503475	0.887627
915.809050	0.868264
916.114585	0.862736
916.420081	0.859972
916.725536	0.856277
917.030952	0.865542
917.336328	0.878289
917.641665	0.893069
917.946961	0.908442
918.252218	0.919969
918.557435	0.928350
918.862612	0.936741
919.167750	0.942209
919.472848	0.947857
919.777906	0.952442
920.082925	0.958572
920.387904	0.961791
920.692843	0.964009
920.997743	0.963715
921.302603	0.967939
921.607423	0.968406
921.912204	0.971717
922.216946	0.972396
922.521647	0.972866
922.826310	0.975334
923.130932	0.977115
923.435516	0.978885
923.740059	0.979589
924.044564	0.979022
924.349028	0.979757
924.653454	0.983965
924.957840	0.986069
925.262186	0.984424
925.566493	0.983353
925.870761	0.985098
926.174989	0.985630
926.479178	0.989577
926.783328	0.988612
927.087438	0.989080
927.391509	0.988296
927.695541	0.989408
927.999533	0.990616
928.303486	0.989749
928.607400	0.991110
928.911275	0.989016
929.215110	0.990615
929.518906	0.990481
929.822663	0.988828
930.126381	0.990194
930.430060	0.989819
930.733699	0.990352
931.037299	0.989649
931.340861	0.990440
931.644383	0.989758
931.947866	0.989527
932.251309	0.990569
932.554714	0.990302
932.858080	0.991017
933.161407	0.991030
933.464694	0.990752
933.767943	0.988859
934.071153	0.991149
934.374323	0.991119
934.677455	0.990203
934.980548	0.991683
935.283602	0.991347
935.586617	0.991130
935.889593	0.990146
936.192530	0.989987
936.495428	0.992358
936.798287	0.990468
937.101108	0.990993
937.403890	0.989303
937.706632	0.988074
938.009336	0.987995
938.312002	0.986332
938.614628	0.984759
938.917216	0.983584
939.219765	0.981456
939.522275	0.982745
939.824747	0.982773
940.127179	0.983831
940.429573	0.984767
940.731929	0.984510
941.034246	0.984131
941.336524	0.986656
941.638763	0.986530
941.940964	0.986014
942.243126	0.986251
942.545250	0.986794
942.847335	0.988906
943.149381	0.987505
943.451389	0.987692
943.753359	0.987532
944.055290	0.989756
944.357182	0.989039
944.659036	0.988014
944.960851	0.988956
945.262628	0.989917
945.564367	0.991435
945.866067	0.989903
946.167729	0.990471
946.469352	0.990231
946.770937	0.989554
947.072484	0.990042
947.373992	0.989419
947.675462	0.991853
947.976893	0.990635
948.278286	0.990787
948.579641	0.991654
948.880958	0.991390
949.182236	0.990974
949.483476	0.990849
949.784678	0.990163
950.085841	0.990575
950.386967	0.990194
950.688054	0.991438
950.989103	0.990586
951.290114	0.989425
951.591087	0.989272
951.892021	0.989736
952.192917	0.988643
952.493776	0.987340
952.794596	0.988913
953.095378	0.988133
953.396122	0.987876
953.696828	0.986530
953.997496	0.990039
954.298126	0.990792
954.598718	0.989991
954.899272	0.990123
955.199788	0.991166
955.500266	0.992086
955.800706	0.993098
956.101108	0.993120
956.401472	0.994052
956.701798	0.993111
957.002087	0.992879
957.302337	0.993330
957.602550	0.996457
957.902724	0.994657
958.202861	0.995924
958.502960	0.995675
958.803022	0.993267
959.103045	0.995787
959.403031	0.995855
959.702979	0.995052
960.002889	0.996151
960.302762	0.994426
960.602596	0.996333
960.902393	0.995330
961.202153	0.996358
961.501875	0.996831
961.801559	0.995918
962.101205	0.994613
962.400814	0.996349
962.700385	0.997505
962.999918	0.995531
963.299414	0.996908
963.598873	0.996147
963.898293	0.996040
964.197677	0.996123
964.497022	0.996325
964.796331	0.997192
965.095601	0.997232
965.394835	0.994756
965.694030	0.996926
965.993189	0.997266
966.292309	0.995593
966.591393	0.997784
966.890439	0.997386
967.189447	0.996452
967.488419	0.997059
967.787353	0.995818
968.086249	0.996471
968.385108	0.996809
968.683930	0.997215
968.982714	0.997865
969.281462	0.997147
969.580172	0.996036
969.878844	0.997494
970.177480	0.996909
970.476078	0.997787
970.774639	0.996534
971.073162	0.997958
971.371649	0.995660
971.670098	0.996378
971.968510	0.997464
972.266885	0.995918
972.565223	0.996031
972.863524	0.995769
973.161788	0.996087
973.460014	0.997282
973.758204	0.996163
974.056356	0.996511
974.354471	0.994579
974.652550	0.996373
974.950591	0.996693
975.248595	0.995957
975.546563	0.996280
975.844493	0.997643
976.142386	0.996732
976.440243	0.997934
976.738062	0.997723
977.035845	0.998220
977.333590	0.996676
977.631299	0.997529
977.928971	0.996260
978.226606	0.997132
978.524204	0.995115
978.821765	0.998465
979.119290	0.995911
979.416777	0.996827
979.714228	0.997340
980.011642	0.995626
980.309020	0.997044
980.606360	0.998687
980.903664	0.998856
981.200931	0.996323
981.498162	0.995304
981.795356	0.994560
982.092513	0.993265
982.389633	0.994333
982.686717	0.990595
982.983764	0.991475
983.280775	0.990970
983.577749	0.991239
983.874686	0.991970
984.171587	0.992329
984.468451	0.994880
984.765279	0.994400
985.062070	0.994004
985.358824	0.995334
985.655543	0.995204
985.952224	0.996140
986.248869	0.996584
986.545478	0.997091
986.842050	0.997733
987.138586	0.995535
987.435086	0.996983
987.731549	0.997311
988.027975	0.998578
988.324366	0.997202
988.620719	0.996945
988.917037	0.996249
989.213318	0.998337
989.509563	0.998901
989.805772	0.998827
990.101944	0.998210
990.398080	0.997955
990.694180	0.996663
990.990244	0.996712
991.286271	0.997923
991.582262	0.998546
991.878217	0.996981
992.174136	0.998778
992.470019	0.998778
992.765865	0.997963
993.061676	0.997212
993.357450	0.998421
993.653188	0.997830
993.948890	0.997012
994.244556	0.999119
994.540186	0.997980
994.835780	0.997081
995.131337	0.997809
995.426859	0.997128
995.722345	0.996827
996.017795	0.996671
996.313208	0.995948
996.608586	0.996232
996.903928	0.996031
997.199234	0.996109
997.494504	0.997009
997.789738	0.996057
998.084936	0.996727
998.380099	0.997289
998.675225	0.996645
998.970316	0.997286
999.265371	0.997112
999.560390	0.998475
999.855373	0.998067
1000.150320	0.997283
1000.445232	0.998574
1000.740108	0.997661
1001.034948	0.998404
1001.329752	0.998332
1001.624521	0.998530
1001.919254	0.997415
1002.213951	0.998083
1002.508613	0.997891
1002.803239	0.999203
1003.097829	0.998756
1003.392384	0.999114
1003.686903	0.998255
1003.981386	0.997423
1004.275834	0.998727
1004.570246	0.998500
1004.864623	0.999483
1005.158964	0.998861
1005.453270	0.997416
1005.747540	0.996254
1006.041775	0.998590
1006.335974	0.999436
1006.630138	0.998147
1006.924266	0.999964
1007.218359	0.999600
1007.512416	0.999939
1007.806438	0.997965
1008.100425	0.998598
1008.394376	0.998417
1008.688292	0.997342
1008.982172	1.000575
1009.276017	1.000002
1009.569827	0.998653
1009.863602	0.998789
1010.157341	0.999410
1010.451045	0.998765
1010.744714	0.999278
1011.038347	0.998620
1011.331945	0.998953
1011.625508	0.998289
1011.919036	0.998745
1012.212528	0.998465
1012.505986	0.997336
1012.799408	0.998901
1013.092795	0.999127
1013.386147	0.998711
1013.679464	0.998834
1013.972745	0.998535
1014.265992	0.997420
1014.559204	0.998428
1014.852380	0.998527
1015.145521	0.999517
1015.438628	0.999128
1015.731699	0.999693
1016.024736	0.998288
1016.317737	0.999376
1016.610703	0.998919
1016.903635	0.998594
1017.196531	0.998146
1017.489393	0.998641
1017.782219	0.998214
1018.075011	0.998019
1018.367768	0.998753
1018.660490	0.998721
1018.953177	0.998721
1019.245829	0.998721
