Dividing Wavelength (nm)	Counts (n)	Blue Motor Position (mm): 0.000000	Red Motor Position (mm): 27.300000	
326.493990	0.999697
326.888308	0.999697
327.282561	0.999697
327.676750	1.000398
328.070874	0.999027
328.464933	0.999345
328.858929	0.999550
329.252859	0.999505
329.646726	0.999678
330.040528	0.999775
330.434265	0.999959
330.827938	1.001065
331.221547	0.999946
331.615091	1.000939
332.008571	0.999375
332.401986	0.999350
332.795338	0.999594
333.188625	0.997522
333.581847	1.000080
333.975006	0.998702
334.368100	0.999466
334.761129	0.999514
335.154095	1.001507
335.546996	0.998575
335.939833	0.993205
336.332606	0.993947
336.725315	0.995265
337.117960	0.996361
337.510540	0.994583
337.903056	0.995983
338.295508	0.994315
338.687896	0.994687
339.080220	0.995210
339.472480	0.994479
339.864676	0.994298
340.256807	0.994630
340.648875	0.995299
341.040879	0.994440
341.432818	0.994521
341.824694	0.994003
342.216506	0.996461
342.608253	0.995478
342.999937	0.994506
343.391557	0.994237
343.783113	0.994052
344.174605	0.995906
344.566033	0.995434
344.957397	0.994548
345.348697	0.994407
345.739934	0.995359
346.131106	0.994576
346.522215	0.994657
346.913260	0.995167
347.304241	0.993714
347.695159	0.994079
348.086012	0.993347
348.476802	0.994799
348.867528	0.995310
349.258191	0.993219
349.648789	0.996344
350.039324	0.994434
350.429796	0.995303
350.820203	0.995194
351.210548	0.994331
351.600828	0.994879
351.991045	0.994295
352.381198	0.995089
352.771288	0.995352
353.161314	0.994375
353.551276	0.995838
353.941175	0.994812
354.331010	0.994424
354.720782	0.995386
355.110490	0.994722
355.500135	0.995432
355.889717	0.993787
356.279235	0.992941
356.668689	0.995234
357.058080	0.994596
357.447408	0.995965
357.836672	0.995660
358.225873	0.995025
358.615010	0.994871
359.004084	0.994952
359.393095	0.994961
359.782043	0.994694
360.170927	0.996621
360.559748	0.994131
360.948505	0.994956
361.337199	0.994097
361.725830	0.995137
362.114398	0.994563
362.502903	0.995298
362.891344	0.995998
363.279722	0.995933
363.668037	0.995393
364.056289	0.994999
364.444478	0.996026
364.832603	0.994954
365.220665	0.994884
365.608665	0.994502
365.996601	0.994735
366.384474	0.995252
366.772284	0.995066
367.160031	0.993697
367.547715	0.994124
367.935336	0.994660
368.322893	0.994099
368.710388	0.993027
369.097820	0.994886
369.485189	0.994224
369.872495	0.994778
370.259738	0.993152
370.646918	0.995843
371.034035	0.995580
371.421090	0.994684
371.808081	0.994082
372.195010	0.995322
372.581875	0.995485
372.968678	0.995103
373.355418	0.995016
373.742096	0.995108
374.128710	0.995510
374.515262	0.994138
374.901751	0.995592
375.288177	0.995168
375.674540	0.996317
376.060841	0.993546
376.447079	0.995671
376.833254	0.995181
377.219367	0.995448
377.605417	0.996016
377.991404	0.996003
378.377329	0.994533
378.763191	0.994947
379.148991	0.996129
379.534727	0.995966
379.920402	0.996059
380.306013	0.995404
380.691563	0.996517
381.077049	0.995130
381.462474	0.995981
381.847835	0.996362
382.233134	0.995909
382.618371	0.996038
383.003545	0.995328
383.388657	0.995456
383.773706	0.996903
384.158693	0.996519
384.543618	0.996022
384.928480	0.996547
385.313280	0.996492
385.698017	0.996171
386.082692	0.997142
386.467305	0.996702
386.851856	0.997052
387.236344	0.995275
387.620770	0.995607
388.005133	0.996191
388.389435	0.998122
388.773674	0.996347
389.157851	0.997078
389.541965	0.997757
389.926018	0.996355
390.310008	0.997837
390.693936	0.997004
391.077802	0.997367
391.461606	0.997251
391.845348	0.997128
392.229027	0.998197
392.612645	0.996315
392.996200	0.997294
393.379694	0.996680
393.763125	0.997965
394.146494	0.996492
394.529801	0.996417
394.913047	0.997607
395.296230	0.997021
395.679351	0.996640
396.062410	0.996715
396.445408	0.997403
396.828343	0.997078
397.211217	0.996618
397.594028	0.996889
397.976778	0.997516
398.359466	0.997091
398.742092	0.997189
399.124656	0.997506
399.507158	0.997575
399.889598	0.996949
400.271977	0.997577
400.654294	0.997990
401.036549	0.997661
401.418742	0.998089
401.800874	0.996721
402.182944	0.997831
402.564952	0.996200
402.946898	0.997809
403.328783	0.997396
403.710606	0.997381
404.092367	0.997132
404.474067	0.997781
404.855705	0.996997
405.237282	0.997490
405.618797	0.996968
406.000250	0.996493
406.381642	0.997676
406.762972	0.998553
407.144240	0.998771
407.525447	0.998234
407.906593	0.997310
408.287677	0.996957
408.668700	0.997718
409.049661	0.996531
409.430560	0.997215
409.811399	0.997205
410.192176	0.996604
410.572891	0.996925
410.953545	0.997581
411.334138	0.997330
411.714669	0.998394
412.095139	0.997084
412.475547	0.997995
412.855894	0.997319
413.236180	0.998448
413.616405	0.997867
413.996568	0.997749
414.376670	0.998222
414.756711	0.997128
415.136691	0.997045
415.516609	0.997409
415.896466	0.997745
416.276262	0.996953
416.655997	0.997662
417.035670	0.997080
417.415283	0.997630
417.794834	0.997620
418.174324	0.997759
418.553753	0.998388
418.933121	0.998156
419.312428	0.998041
419.691674	0.997545
420.070859	0.997634
420.449983	0.997521
420.829045	0.997969
421.208047	0.998544
421.586988	0.997995
421.965867	0.997818
422.344686	0.998354
422.723444	0.996963
423.102141	0.997308
423.480777	0.997651
423.859352	0.997385
424.237866	0.997870
424.616319	0.998519
424.994712	0.998140
425.373044	0.999231
425.751314	0.998308
426.129524	0.997677
426.507673	0.998805
426.885762	0.999043
427.263789	0.997623
427.641756	0.997431
428.019662	0.998883
428.397508	0.997206
428.775292	0.997362
429.153016	0.997501
429.530679	0.998074
429.908282	0.998585
430.285824	0.997913
430.663305	0.996906
431.040726	0.997737
431.418086	0.998710
431.795385	0.998784
432.172624	0.997530
432.549802	0.998493
432.926920	0.997920
433.303977	0.997264
433.680974	0.997668
434.057910	0.997521
434.434786	0.997255
434.811601	0.997161
435.188355	0.997038
435.565050	0.996908
435.941683	0.997810
436.318257	0.998075
436.694770	0.997357
437.071222	0.997259
437.447614	0.998031
437.823946	0.997420
438.200218	0.998032
438.576429	0.997347
438.952580	0.997497
439.328670	0.997090
439.704700	0.997451
440.080670	0.997328
440.456580	0.996532
440.832429	0.996970
441.208218	0.996423
441.583947	0.996935
441.959616	0.996746
442.335224	0.996560
442.710773	0.996870
443.086261	0.996570
443.461689	0.996090
443.837057	0.995843
444.212365	0.996404
444.587612	0.995266
444.962800	0.994941
445.337927	0.994720
445.712995	0.994315
446.088002	0.993798
446.462949	0.993660
446.837837	0.993148
447.212664	0.992981
447.587431	0.991683
447.962139	0.990358
448.336786	0.989972
448.711374	0.988430
449.085901	0.987870
449.460369	0.988829
449.834776	0.985750
450.209124	0.985270
450.583412	0.983317
450.957640	0.982433
451.331808	0.980056
451.705917	0.979419
452.079965	0.978138
452.453954	0.976340
452.827883	0.975518
453.201752	0.974211
453.575562	0.972384
453.949311	0.969003
454.323001	0.967156
454.696632	0.965347
455.070202	0.962295
455.443713	0.959695
455.817164	0.957804
456.190556	0.954379
456.563888	0.950960
456.937160	0.948187
457.310373	0.946535
457.683526	0.943427
458.056619	0.940682
458.429653	0.937790
458.802628	0.933419
459.175542	0.930589
459.548398	0.924394
459.921194	0.919050
460.293930	0.915027
460.666607	0.903838
461.039224	0.896179
461.411782	0.892602
461.784280	0.888099
462.156719	0.885552
462.529099	0.881423
462.901419	0.878901
463.273680	0.875574
463.645882	0.870675
464.018024	0.865073
464.390106	0.858883
464.762130	0.849231
465.134094	0.836281
465.505999	0.819999
465.877845	0.804614
466.249631	0.796591
466.621358	0.793179
466.993026	0.790918
467.364634	0.785639
467.736184	0.781563
468.107674	0.775290
468.479105	0.765879
468.850477	0.762937
469.221790	0.757234
469.593043	0.753462
469.964238	0.746813
470.335373	0.738806
470.706449	0.730307
471.077467	0.722688
471.448425	0.698377
471.819324	0.680174
472.190164	0.673169
472.560945	0.677901
472.931667	0.678173
473.302330	0.672109
473.672934	0.670270
474.043479	0.656194
474.413965	0.649378
474.784393	0.642286
475.154761	0.632345
475.525070	0.622174
475.895321	0.618397
476.265513	0.607110
476.635645	0.596791
477.005719	0.587907
477.375734	0.578968
477.745691	0.567357
478.115588	0.556859
478.485427	0.544379
478.855207	0.529691
479.224928	0.511196
479.594591	0.497053
479.964194	0.490590
480.333739	0.482765
480.703226	0.474535
481.072653	0.466570
481.442022	0.456340
481.811333	0.447622
482.180584	0.442403
482.549777	0.437783
482.918912	0.433983
483.287988	0.426319
483.657005	0.419685
484.025964	0.417782
484.394864	0.408720
484.763706	0.402397
485.132489	0.400407
485.501213	0.394061
485.869879	0.387382
486.238487	0.383462
486.607036	0.376658
486.975527	0.373967
487.343959	0.365318
487.712333	0.359314
488.080648	0.355590
488.448905	0.349677
488.817104	0.345944
489.185244	0.336996
489.553326	0.329191
489.921350	0.316429
490.289315	0.297585
490.657222	0.289547
491.025070	0.286157
491.392861	0.283865
491.760593	0.284526
492.128267	0.284852
492.495883	0.285916
492.863440	0.288002
493.230939	0.290376
493.598380	0.288642
493.965763	0.287342
494.333088	0.286922
494.700354	0.284991
495.067563	0.281560
495.434713	0.282302
495.801805	0.277780
496.168839	0.276741
496.535815	0.275503
496.902733	0.273675
497.269593	0.272886
497.636395	0.269115
498.003139	0.267366
498.369825	0.268656
498.736453	0.263276
499.103023	0.263287
499.469535	0.261263
499.835989	0.260015
500.202385	0.259744
500.568723	0.261708
500.935003	0.255816
501.301226	0.258935
501.667390	0.252526
502.033497	0.249566
502.399546	0.251830
502.765537	0.252558
503.131470	0.250333
503.497345	0.246002
503.863163	0.253952
504.228923	0.246328
504.594625	0.244360
504.960269	0.249315
505.325856	0.244185
505.691385	0.247640
506.056856	0.244098
506.422270	0.243216
506.787625	0.245197
507.152924	0.242407
507.518164	0.242535
507.883347	0.243737
508.248472	0.245352
508.613540	0.240348
508.978550	0.242469
509.343503	0.242465
509.708398	0.240140
510.073236	0.237667
510.438016	0.237531
510.802738	0.237928
511.167403	0.236985
511.532010	0.238824
511.896561	0.234120
512.261053	0.232933
512.625488	0.234593
512.989866	0.234842
513.354186	0.235000
513.718449	0.236595
514.082655	0.232826
514.446803	0.235217
514.810894	0.232325
515.174927	0.235151
515.538904	0.234449
515.902822	0.231517
516.266684	0.233786
516.630488	0.235075
516.994235	0.233552
517.357925	0.231934
517.721558	0.230376
518.085133	0.229700
518.448651	0.229765
518.812112	0.231914
519.175516	0.231836
519.538863	0.229192
519.902152	0.230803
520.265385	0.227558
520.628560	0.229310
520.991678	0.229700
521.354739	0.228634
521.717743	0.229693
522.080690	0.230300
522.443580	0.227462
522.806413	0.228547
523.169189	0.227589
523.531908	0.226617
523.894569	0.230142
524.257174	0.230051
524.619722	0.227703
524.982213	0.228651
525.344647	0.227623
525.707025	0.228452
526.069345	0.226446
526.431608	0.228102
526.793815	0.226273
527.155964	0.230164
527.518057	0.229207
527.880093	0.230196
528.242072	0.228390
528.603995	0.230597
528.965860	0.232156
529.327669	0.231160
529.689421	0.231893
530.051117	0.232809
530.412755	0.230391
530.774337	0.232860
531.135862	0.233097
531.497331	0.232651
531.858743	0.235400
532.220098	0.232308
532.581396	0.234851
532.942638	0.235151
533.303824	0.235903
533.664953	0.235946
534.026025	0.237586
534.387040	0.235492
534.747999	0.235317
535.108902	0.234511
535.469748	0.238958
535.830537	0.236853
536.191270	0.237750
536.551947	0.237351
536.912567	0.237097
537.273131	0.238981
537.633638	0.238805
537.994089	0.239159
538.354483	0.240510
538.714821	0.237366
539.075103	0.237276
539.435328	0.238211
539.795497	0.241775
540.155609	0.238368
540.515665	0.236416
540.875665	0.242104
541.235609	0.240512
541.595496	0.240672
541.955328	0.237535
542.315102	0.239897
542.674821	0.240872
543.034483	0.240626
543.394090	0.240546
543.753640	0.242303
544.113134	0.237416
544.472571	0.241031
544.831953	0.237579
545.191278	0.241778
545.550548	0.241182
545.909761	0.237842
546.268918	0.238899
546.628019	0.237021
546.987064	0.239711
547.346053	0.241583
547.704986	0.239392
548.063863	0.239980
548.422684	0.240128
548.781449	0.241865
549.140158	0.239316
549.498811	0.242164
549.857408	0.245350
550.215949	0.240137
550.574434	0.243355
550.932864	0.240917
551.291237	0.239960
551.649555	0.241290
552.007817	0.240907
552.366022	0.241753
552.724173	0.241981
553.082267	0.242482
553.440305	0.239350
553.798288	0.243730
554.156215	0.240214
554.514086	0.240950
554.871902	0.244253
555.229661	0.243411
555.587365	0.243764
555.945014	0.246547
556.302606	0.243111
556.660143	0.245842
557.017625	0.242309
557.375050	0.244521
557.732421	0.241625
558.089735	0.243627
558.446994	0.243949
558.804197	0.242922
559.161345	0.242680
559.518437	0.246358
559.875474	0.244049
560.232455	0.243588
560.589381	0.244583
560.946251	0.244563
561.303065	0.242120
561.659825	0.243832
562.016528	0.245257
562.373177	0.248039
562.729770	0.245400
563.086307	0.247400
563.442789	0.245091
563.799216	0.248142
564.155587	0.246670
564.511904	0.247925
564.868164	0.248204
565.224370	0.248119
565.580520	0.249663
565.936615	0.249658
566.292654	0.252391
566.648638	0.249485
567.004567	0.250563
567.360441	0.250714
567.716260	0.253094
568.072023	0.250918
568.427732	0.251568
568.783385	0.253563
569.138982	0.252316
569.494525	0.251823
569.850013	0.254535
570.205445	0.253090
570.560823	0.255542
570.916145	0.257522
571.271412	0.255797
571.626625	0.257050
571.981782	0.257575
572.336884	0.258593
572.691931	0.258185
573.046923	0.259598
573.401860	0.260781
573.756743	0.262407
574.111570	0.261283
574.466342	0.261770
574.821059	0.261059
575.175722	0.263863
575.530330	0.263379
575.884882	0.263654
576.239380	0.265861
576.593823	0.266340
576.948211	0.265787
577.302544	0.269288
577.656823	0.268550
578.011047	0.268618
578.365216	0.269441
578.719330	0.271527
579.073389	0.271305
579.427394	0.272521
579.781344	0.273089
580.135239	0.274932
580.489080	0.274027
580.842866	0.277026
581.196597	0.277683
581.550273	0.275754
581.903895	0.277020
582.257463	0.274921
582.610975	0.278915
582.964434	0.277770
583.317837	0.280151
583.671186	0.280781
584.024481	0.280537
584.377721	0.283175
584.730906	0.283923
585.084037	0.283009
585.437113	0.284965
585.790135	0.284256
586.143103	0.287500
586.496016	0.288526
586.848874	0.286267
587.201679	0.286334
587.554428	0.289913
587.907124	0.288413
588.259765	0.289382
588.612352	0.289942
588.964884	0.293440
589.317362	0.293291
589.669786	0.292911
590.022155	0.291494
590.374470	0.290867
590.726731	0.292964
591.078937	0.297536
591.431090	0.294060
591.783188	0.298092
592.135232	0.298616
592.487222	0.298635
592.839157	0.296792
593.191038	0.299241
593.542866	0.300924
593.894639	0.305076
594.246358	0.302639
594.598022	0.302272
594.949633	0.305882
595.301190	0.306505
595.652692	0.305858
596.004141	0.301935
596.355535	0.309973
596.706876	0.310561
597.058162	0.312768
597.409395	0.310011
597.760573	0.307697
598.111698	0.310958
598.462768	0.311711
598.813785	0.312916
599.164748	0.314112
599.515657	0.314529
599.866511	0.317430
600.217312	0.313029
600.568060	0.318728
600.918753	0.314967
601.269392	0.315414
601.619978	0.318967
601.970510	0.316441
602.320988	0.316660
602.671412	0.314393
603.021783	0.316935
603.372100	0.318667
603.722363	0.318177
604.072572	0.318682
604.422728	0.318539
604.772830	0.320983
605.122878	0.320324
605.472872	0.320878
605.822813	0.318848
606.172701	0.321801
606.522534	0.319261
606.872314	0.319343
607.222041	0.320210
607.571714	0.318232
607.921333	0.319455
608.270899	0.319510
608.620411	0.316130
608.969870	0.320031
609.319276	0.320079
609.668627	0.320006
610.017926	0.318307
610.367171	0.317156
610.716362	0.317816
611.065500	0.318275
611.414585	0.317058
611.763616	0.317379
612.112594	0.317710
612.461518	0.317237
612.810389	0.314998
613.159207	0.317226
613.507971	0.318976
613.856682	0.314738
614.205340	0.316278
614.553945	0.313228
614.902496	0.317169
615.250994	0.315254
615.599439	0.316036
615.947830	0.315444
616.296169	0.316278
616.644454	0.315900
616.992686	0.315359
617.340864	0.313723
617.688990	0.317333
618.037063	0.313617
618.385082	0.315863
618.733048	0.313100
619.080961	0.315126
619.428821	0.314287
619.776628	0.313919
620.124382	0.316174
620.472083	0.316351
620.819731	0.315939
621.167326	0.319593
621.514868	0.318871
621.862357	0.323439
622.209793	0.322952
622.557176	0.325081
622.904506	0.326657
623.251783	0.328817
623.599007	0.330681
623.946179	0.330420
624.293297	0.332494
624.640363	0.336209
624.987376	0.336805
625.334336	0.339368
625.681243	0.341301
626.028097	0.342125
626.374899	0.343054
626.721647	0.343420
627.068343	0.346554
627.414987	0.347671
627.761577	0.350323
628.108115	0.348372
628.454600	0.352949
628.801032	0.350453
629.147412	0.352710
629.493739	0.353140
629.840014	0.355952
630.186236	0.353548
630.532405	0.359083
630.878521	0.357027
631.224585	0.358655
631.570597	0.362576
631.916556	0.360703
632.262462	0.360923
632.608316	0.363344
632.954117	0.363873
633.299866	0.364884
633.645562	0.365111
633.991206	0.369231
634.336797	0.372633
634.682336	0.374814
635.027823	0.375847
635.373257	0.376611
635.718639	0.380261
636.063968	0.379663
636.409245	0.385598
636.754470	0.385640
637.099642	0.387994
637.444762	0.391713
637.789829	0.390409
638.134845	0.393762
638.479808	0.395389
638.824719	0.395200
639.169577	0.398890
639.514383	0.397343
639.859137	0.401874
640.203839	0.401532
640.548489	0.402435
640.893086	0.403972
641.237632	0.405374
641.582125	0.403221
641.926566	0.405110
642.270955	0.405148
642.615292	0.405935
642.959576	0.404772
643.303809	0.405530
643.647990	0.405085
643.992118	0.405565
644.336195	0.409375
644.680219	0.407619
645.024192	0.408063
645.368112	0.401656
645.711981	0.401038
646.055797	0.396049
646.399562	0.398487
646.743274	0.390616
647.086935	0.387544
647.430544	0.388382
647.774101	0.387060
648.117606	0.386887
648.461059	0.387341
648.804460	0.389469
649.147810	0.394961
649.491108	0.396172
649.834354	0.398031
650.177548	0.403396
650.520690	0.408691
650.863781	0.410081
651.206820	0.409196
651.549807	0.414147
651.892742	0.417989
652.235626	0.417549
652.578458	0.418332
652.921238	0.424303
653.263967	0.422628
653.606644	0.426241
653.949269	0.425253
654.291843	0.429622
654.634365	0.426130
654.976836	0.429992
655.319255	0.430174
655.661622	0.430932
656.003938	0.431156
656.346203	0.434814
656.688416	0.432639
657.030577	0.435536
657.372687	0.437696
657.714746	0.438551
658.056753	0.435224
658.398708	0.439474
658.740612	0.440358
659.082465	0.436757
659.424266	0.436900
659.766016	0.436870
660.107715	0.438900
660.449362	0.438521
660.790958	0.438532
661.132503	0.439138
661.473996	0.436877
661.815438	0.437541
662.156829	0.438489
662.498168	0.438826
662.839456	0.440378
663.180693	0.438127
663.521879	0.437986
663.863013	0.438469
664.204097	0.437452
664.545129	0.433941
664.886110	0.434362
665.227040	0.432012
665.567918	0.434687
665.908746	0.432279
666.249522	0.431981
666.590248	0.432829
666.930922	0.431486
667.271545	0.429987
667.612118	0.430244
667.952639	0.432246
668.293109	0.430294
668.633528	0.433788
668.973896	0.433256
669.314213	0.433844
669.654480	0.434873
669.994695	0.435578
670.334859	0.436567
670.674973	0.436998
671.015035	0.436678
671.355047	0.437071
671.695008	0.438076
672.034918	0.439535
672.374777	0.439137
672.714585	0.439916
673.054342	0.439889
673.394049	0.440548
673.733705	0.437586
674.073310	0.439133
674.412864	0.442061
674.752368	0.442305
675.091820	0.442984
675.431223	0.446890
675.770574	0.447340
676.109875	0.450173
676.449125	0.449967
676.788324	0.452326
677.127473	0.457376
677.466571	0.457200
677.805619	0.458850
678.144616	0.460500
678.483562	0.461908
678.822458	0.464078
679.161303	0.465329
679.500098	0.466238
679.838842	0.467479
680.177535	0.467116
680.516179	0.465085
680.854771	0.464828
681.193314	0.458047
681.531805	0.449471
681.870247	0.437856
682.208638	0.430778
682.546978	0.429689
682.885268	0.431169
683.223508	0.437352
683.561697	0.440874
683.899836	0.444262
684.237925	0.447188
684.575963	0.449478
684.913951	0.452620
685.251889	0.448646
685.589776	0.451236
685.927614	0.452801
686.265401	0.447532
686.603137	0.448569
686.940824	0.442244
687.278460	0.441243
687.616046	0.440242
687.953582	0.434797
688.291068	0.436639
688.628504	0.432838
688.965889	0.434826
689.303224	0.438740
689.640510	0.442450
689.977745	0.448427
690.314930	0.455988
690.652065	0.460920
690.989150	0.468194
691.326185	0.474394
691.663170	0.479190
692.000105	0.486790
692.336990	0.492882
692.673825	0.495587
693.010610	0.502812
693.347345	0.508309
693.684030	0.509735
694.020665	0.514430
694.357251	0.523072
694.693786	0.523197
695.030272	0.527226
695.366707	0.530457
695.703093	0.533672
696.039429	0.531368
696.375716	0.533402
696.711952	0.535932
697.048139	0.537843
697.384276	0.539662
697.720363	0.538383
698.056400	0.537325
698.392388	0.542838
698.728326	0.545404
699.064214	0.548605
699.400053	0.549464
699.735842	0.552635
700.071581	0.555803
700.407270	0.558451
700.742910	0.560748
701.078501	0.568020
701.414042	0.567415
701.749533	0.570991
702.084974	0.579692
702.420366	0.572286
702.755709	0.579762
703.091002	0.587600
703.426246	0.580433
703.761440	0.586194
704.096584	0.591731
704.431679	0.589175
704.766725	0.590375
705.101721	0.592612
705.436668	0.587911
705.771565	0.595563
706.106413	0.592753
706.441212	0.587346
706.775961	0.586031
707.110661	0.589296
707.445311	0.585233
707.779913	0.582467
708.114465	0.580424
708.448967	0.577658
708.783421	0.569894
709.117825	0.565085
709.452180	0.564382
709.786485	0.558055
710.120742	0.548283
710.454949	0.550134
710.789107	0.542439
711.123216	0.533693
711.457275	0.534807
711.791286	0.526413
712.125247	0.525043
712.459159	0.536256
712.793023	0.528379
713.126837	0.532830
713.460602	0.532790
713.794318	0.541983
714.127985	0.541195
714.461602	0.551088
714.795171	0.554412
715.128691	0.562092
715.462162	0.569200
715.795584	0.575194
716.128957	0.577383
716.462281	0.584339
716.795556	0.588366
717.128782	0.592448
717.461960	0.602331
717.795088	0.600261
718.128167	0.606953
718.461198	0.615833
718.794180	0.616153
719.127113	0.618543
719.459997	0.622828
719.792833	0.629418
720.125619	0.630601
720.458357	0.636734
720.791046	0.635362
721.123686	0.639067
721.456278	0.646260
721.788821	0.642871
722.121315	0.648019
722.453761	0.651399
722.786158	0.649658
723.118506	0.646177
723.450805	0.653441
723.783056	0.649789
724.115259	0.647081
724.447412	0.646892
724.779518	0.648141
725.111574	0.647262
725.443582	0.642982
725.775542	0.645242
726.107453	0.636319
726.439315	0.636919
726.771129	0.635433
727.102895	0.629151
727.434612	0.621255
727.766281	0.619885
728.097901	0.618303
728.429473	0.619618
728.760996	0.616883
729.092471	0.617053
729.423897	0.621089
729.755276	0.620016
730.086606	0.620269
730.417887	0.614142
730.749120	0.605553
731.080305	0.596589
731.411442	0.592602
731.742530	0.596903
732.073570	0.596348
732.404562	0.589093
732.735506	0.589716
733.066401	0.594690
733.397249	0.604755
733.728048	0.614927
734.058798	0.627816
734.389501	0.638084
734.720156	0.647993
735.050762	0.656460
735.381320	0.657380
735.711831	0.666440
736.042293	0.671558
736.372707	0.666171
736.703073	0.671838
737.033391	0.674040
737.363661	0.670300
737.693883	0.666356
738.024056	0.664550
738.354182	0.665673
738.684260	0.654089
739.014290	0.650510
739.344272	0.651094
739.674207	0.644492
740.004093	0.644441
740.333931	0.644600
740.663722	0.644710
740.993464	0.645138
741.323159	0.649463
741.652806	0.654090
741.982405	0.658956
742.311956	0.664223
742.641460	0.665622
742.970915	0.669098
743.300323	0.677172
743.629683	0.683198
743.958996	0.685849
744.288260	0.689346
744.617477	0.696147
744.946647	0.697413
745.275768	0.701879
745.604842	0.702978
745.933869	0.713012
746.262847	0.712503
746.591778	0.706006
746.920662	0.712708
747.249498	0.719208
747.578286	0.709650
747.907027	0.705760
748.235720	0.706320
748.564365	0.702210
748.892963	0.701957
749.221514	0.704467
749.550017	0.709253
749.878473	0.709304
750.206881	0.715395
750.535242	0.717317
750.863555	0.716610
751.191821	0.717846
751.520039	0.721399
751.848210	0.725723
752.176334	0.718780
752.504411	0.717867
752.832440	0.725306
753.160421	0.730147
753.488356	0.727782
753.816243	0.725236
754.144082	0.734044
754.471875	0.736205
754.799620	0.732387
755.127318	0.734338
755.454969	0.733953
755.782572	0.733288
756.110129	0.738698
756.437638	0.740377
756.765100	0.736895
757.092515	0.735431
757.419882	0.734506
757.747203	0.739287
758.074477	0.738695
758.401703	0.736270
758.728882	0.730571
759.056014	0.730247
759.383099	0.729021
759.710138	0.730441
760.037129	0.726472
760.364073	0.719631
760.690970	0.723624
761.017820	0.729221
761.344623	0.724308
761.671379	0.716273
761.998088	0.703109
762.324751	0.681793
762.651366	0.639907
762.977935	0.573435
763.304456	0.521796
763.630931	0.511787
763.957359	0.550587
764.283740	0.594938
764.610074	0.622157
764.936362	0.652606
765.262602	0.678914
765.588796	0.700736
765.914943	0.718767
766.241044	0.736224
766.567097	0.742815
766.893104	0.752766
767.219064	0.759396
767.544978	0.764782
767.870845	0.778748
768.196665	0.782601
768.522438	0.780985
768.848165	0.781876
769.173846	0.790344
769.499479	0.796020
769.825066	0.798486
770.150607	0.804350
770.476101	0.798021
770.801548	0.800332
771.126949	0.811681
771.452303	0.815599
771.777611	0.813964
772.102872	0.813546
772.428087	0.818328
772.753256	0.822067
773.078378	0.824739
773.403453	0.832617
773.728482	0.837993
774.053465	0.831231
774.378401	0.834524
774.703291	0.843528
775.028135	0.842369
775.352932	0.844294
775.677683	0.847150
776.002388	0.847259
776.327046	0.846877
776.651658	0.849243
776.976224	0.854050
777.300743	0.853579
777.625216	0.855360
777.949643	0.857632
778.274024	0.857838
778.598359	0.858833
778.922647	0.857771
779.246889	0.858732
779.571086	0.862473
779.895236	0.865176
780.219339	0.861510
780.543397	0.858696
780.867409	0.857190
781.191374	0.859659
781.515294	0.861008
781.839167	0.860182
782.162995	0.863220
782.486776	0.860707
782.810511	0.860100
783.134201	0.865050
783.457844	0.861925
783.781441	0.865657
784.104993	0.871119
784.428498	0.871001
784.751958	0.866436
785.075372	0.870021
785.398739	0.873154
785.722061	0.868779
786.045337	0.865255
786.368568	0.870439
786.691752	0.872235
787.014891	0.858657
787.337983	0.849198
787.661030	0.842408
787.984031	0.825377
788.306987	0.811718
788.629897	0.813580
788.952760	0.817132
789.275579	0.822378
789.598351	0.836501
789.921078	0.850336
790.243759	0.851649
790.566395	0.857497
790.888984	0.863884
791.211529	0.869338
791.534027	0.873031
791.856480	0.875044
792.178888	0.879888
792.501249	0.882046
792.823566	0.883581
793.145836	0.883623
793.468062	0.885244
793.790241	0.886047
794.112375	0.883243
794.434464	0.880054
794.756507	0.878052
795.078505	0.878511
795.400457	0.872274
795.722364	0.860849
796.044226	0.853824
796.366042	0.853181
796.687812	0.856253
797.009538	0.851979
797.331218	0.855483
797.652852	0.860102
797.974442	0.865002
798.295986	0.864292
798.617484	0.867740
798.938938	0.872616
799.260346	0.877162
799.581709	0.878785
799.903026	0.880330
800.224299	0.880606
800.545526	0.884621
800.866708	0.889289
801.187845	0.893321
801.508936	0.892200
801.829983	0.891387
802.150984	0.893164
802.471940	0.898243
802.792851	0.897398
803.113717	0.899031
803.434538	0.896333
803.755314	0.899001
804.076045	0.900623
804.396731	0.900994
804.717372	0.900775
805.037967	0.901471
805.358518	0.899726
805.679024	0.896217
805.999485	0.897183
806.319901	0.898151
806.640272	0.898952
806.960598	0.897049
807.280879	0.894506
807.601115	0.893183
807.921306	0.896165
808.241453	0.897226
808.561554	0.893577
808.881611	0.894630
809.201623	0.896260
809.521590	0.897518
809.841513	0.897794
810.161390	0.897192
810.481223	0.897103
810.801011	0.901709
811.120755	0.903389
811.440453	0.901927
811.760107	0.901296
812.079716	0.900581
812.399281	0.904461
812.718801	0.906821
813.038276	0.907891
813.357707	0.906983
813.677093	0.904003
813.996434	0.907518
814.315731	0.908892
814.634983	0.910433
814.954191	0.909249
815.273354	0.904951
815.592473	0.901565
815.911547	0.902450
816.230577	0.899698
816.549562	0.896802
816.868502	0.897683
817.187399	0.893883
817.506250	0.889581
817.825058	0.890393
818.143821	0.887330
818.462539	0.881302
818.781213	0.874185
819.099843	0.863505
819.418429	0.848016
819.736970	0.831359
820.055466	0.811707
820.373919	0.785760
820.692327	0.753701
821.010691	0.718575
821.329011	0.643068
821.647286	0.528656
821.965517	0.415426
822.283704	0.373392
822.601847	0.374802
822.919945	0.410790
823.237999	0.443856
823.556010	0.489475
823.873976	0.545519
824.191897	0.596044
824.509775	0.636826
824.827609	0.682203
825.145398	0.704707
825.463144	0.707254
825.780845	0.690278
826.098502	0.671896
826.416116	0.626775
826.733685	0.582754
827.051210	0.574549
827.368692	0.588865
827.686129	0.625692
828.003522	0.678525
828.320872	0.725038
828.638177	0.769208
828.955439	0.801117
829.272656	0.822367
829.589830	0.841024
829.906960	0.855769
830.224046	0.869193
830.541088	0.878132
830.858086	0.880980
831.175041	0.888191
831.491952	0.888224
831.808819	0.884793
832.125642	0.877289
832.442421	0.862784
832.759157	0.842832
833.075849	0.795694
833.392497	0.732864
833.709101	0.691768
834.025662	0.702118
834.342179	0.733212
834.658653	0.772322
834.975083	0.807951
835.291469	0.833873
835.607811	0.856633
835.924110	0.871691
836.240366	0.887924
836.556578	0.902537
836.872746	0.909455
837.188871	0.915782
837.504952	0.920339
837.820990	0.924914
838.136984	0.927665
838.452935	0.931451
838.768842	0.931491
839.084706	0.925831
839.400526	0.899954
839.716303	0.859578
840.032037	0.838049
840.347727	0.841579
840.663373	0.860186
840.978977	0.881426
841.294537	0.903333
841.610054	0.918335
841.925527	0.926883
842.240957	0.933539
842.556344	0.940305
842.871687	0.946319
843.186987	0.951258
843.502244	0.951092
843.817458	0.952335
844.132629	0.956181
844.447756	0.961240
844.762840	0.959942
845.077881	0.958980
845.392879	0.960255
845.707833	0.962893
846.022745	0.964713
846.337613	0.965561
846.652438	0.966267
846.967221	0.965809
847.281960	0.965705
847.596656	0.968229
847.911309	0.966057
848.225919	0.968314
848.540485	0.967611
848.855009	0.968471
849.169490	0.969198
849.483928	0.970357
849.798323	0.970184
850.112675	0.969700
850.426984	0.969438
850.741251	0.970472
851.055474	0.970222
851.369654	0.968910
851.683792	0.970691
851.997887	0.970576
852.311938	0.970120
852.625947	0.969986
852.939914	0.968440
853.253837	0.968964
853.567718	0.970792
853.881555	0.971471
854.195350	0.968830
854.509103	0.970096
854.822812	0.970560
855.136479	0.970507
855.450103	0.970786
855.763685	0.967908
856.077224	0.969389
856.390720	0.972377
856.704173	0.969632
857.017584	0.968519
857.330953	0.967404
857.644278	0.968404
857.957561	0.969537
858.270802	0.967973
858.584000	0.968408
858.897155	0.967379
859.210268	0.967676
859.523339	0.968234
859.836367	0.970591
860.149352	0.970220
860.462295	0.968990
860.775195	0.969249
861.088054	0.969397
861.400869	0.969920
861.713642	0.971311
862.026373	0.970328
862.339062	0.971984
862.651708	0.967452
862.964312	0.968620
863.276873	0.969952
863.589392	0.968362
863.901869	0.966408
864.214303	0.965104
864.526696	0.964876
864.839045	0.964141
865.151353	0.962463
865.463619	0.963691
865.775842	0.962623
866.088023	0.963788
866.400162	0.961986
866.712258	0.962894
867.024313	0.962530
867.336325	0.964362
867.648296	0.964114
867.960224	0.962887
868.272110	0.962494
868.583954	0.963270
868.895755	0.964788
869.207515	0.962793
869.519233	0.960130
869.830909	0.961856
870.142542	0.962388
870.454134	0.962819
870.765684	0.961721
871.077191	0.958250
871.388657	0.959993
871.700081	0.958377
872.011463	0.958556
872.322803	0.958140
872.634101	0.957299
872.945357	0.955029
873.256571	0.953784
873.567744	0.952853
873.878874	0.953594
874.189963	0.952322
874.501010	0.952720
874.812015	0.950428
875.122979	0.951308
875.433900	0.954073
875.744780	0.953832
876.055618	0.952079
876.366415	0.950845
876.677169	0.950727
876.987882	0.951998
877.298554	0.951643
877.609183	0.948434
877.919771	0.946332
878.230317	0.944271
878.540822	0.941190
878.851285	0.935835
879.161707	0.928807
879.472087	0.916840
879.782425	0.900193
880.092722	0.866947
880.402977	0.815522
880.713191	0.756219
881.023363	0.698541
881.333494	0.665901
881.643583	0.636864
881.953631	0.636625
882.263637	0.664939
882.573602	0.704763
882.883526	0.729710
883.193408	0.751948
883.503248	0.773690
883.813048	0.802026
884.122806	0.831001
884.432522	0.854538
884.742197	0.873346
885.051831	0.883490
885.361424	0.892752
885.670975	0.905321
885.980485	0.915924
886.289954	0.921268
886.599382	0.926825
886.908768	0.929626
887.218113	0.935865
887.527417	0.940504
887.836680	0.943197
888.145901	0.944526
888.455082	0.947113
888.764221	0.950754
889.073319	0.954201
889.382376	0.954209
889.691392	0.953270
890.000366	0.953822
890.309300	0.954527
890.618193	0.954426
890.927044	0.952571
891.235855	0.951763
891.544625	0.951769
891.853353	0.953613
892.162041	0.950573
892.470687	0.942563
892.779293	0.939275
893.087858	0.935112
893.396381	0.927991
893.704864	0.914881
894.013306	0.891187
894.321707	0.865565
894.630068	0.852381
894.938387	0.846891
895.246665	0.847729
895.554903	0.860093
895.863100	0.873271
896.171256	0.889346
896.479371	0.908861
896.787446	0.922206
897.095480	0.927730
897.403473	0.929984
897.711425	0.934334
898.019336	0.941836
898.327207	0.943552
898.635038	0.945601
898.942827	0.946097
899.250576	0.948897
899.558284	0.952472
899.865952	0.953991
900.173579	0.955552
900.481165	0.956719
900.788711	0.960811
901.096216	0.962901
901.403681	0.963213
901.711105	0.964277
902.018489	0.964142
902.325832	0.964080
902.633135	0.963185
902.940397	0.955534
903.247619	0.945099
903.554800	0.920340
903.861941	0.881412
904.169041	0.847786
904.476101	0.830523
904.783121	0.830087
905.090100	0.847010
905.397039	0.868459
905.703938	0.889620
906.010796	0.908601
906.317614	0.925012
906.624391	0.935792
906.931129	0.943800
907.237826	0.952954
907.544483	0.959688
907.851099	0.963600
908.157675	0.968635
908.464211	0.970245
908.770707	0.972830
909.077163	0.975511
909.383578	0.975459
909.689954	0.975184
909.996289	0.975521
910.302584	0.978549
910.608839	0.980216
910.915054	0.979027
911.221229	0.977898
911.527363	0.978453
911.833458	0.977755
912.139513	0.977548
912.445527	0.975688
912.751502	0.973934
913.057436	0.973101
913.363331	0.970546
913.669186	0.966920
913.975000	0.962658
914.280775	0.956224
914.586510	0.950127
914.892205	0.936773
915.197859	0.916655
915.503475	0.889880
915.809050	0.870943
916.114585	0.866359
916.420081	0.862543
916.725536	0.860173
917.030952	0.866930
917.336328	0.880381
917.641665	0.895476
917.946961	0.909801
918.252218	0.921689
918.557435	0.929638
918.862612	0.937865
919.167750	0.943868
919.472848	0.948255
919.777906	0.954472
920.082925	0.959397
920.387904	0.962978
920.692843	0.964080
920.997743	0.965147
921.302603	0.967899
921.607423	0.970067
921.912204	0.972407
922.216946	0.971340
922.521647	0.974162
922.826310	0.975424
923.130932	0.977980
923.435516	0.978771
923.740059	0.980450
924.044564	0.979219
924.349028	0.980878
924.653454	0.983061
924.957840	0.986052
925.262186	0.984434
925.566493	0.984718
925.870761	0.985313
926.174989	0.986092
926.479178	0.988456
926.783328	0.988753
927.087438	0.989404
927.391509	0.988550
927.695541	0.990077
927.999533	0.988920
928.303486	0.989619
928.607400	0.990549
928.911275	0.989822
929.215110	0.989861
929.518906	0.990510
929.822663	0.989685
930.126381	0.991040
930.430060	0.990070
930.733699	0.990007
931.037299	0.989041
931.340861	0.991691
931.644383	0.989501
931.947866	0.990511
932.251309	0.989446
932.554714	0.990588
932.858080	0.989766
933.161407	0.990057
933.464694	0.990661
933.767943	0.989109
934.071153	0.991493
934.374323	0.991752
934.677455	0.991218
934.980548	0.992272
935.283602	0.991000
935.586617	0.991139
935.889593	0.990406
936.192530	0.991789
936.495428	0.990285
936.798287	0.990867
937.101108	0.990603
937.403890	0.989481
937.706632	0.988022
938.009336	0.986063
938.312002	0.986974
938.614628	0.984540
938.917216	0.984057
939.219765	0.983035
939.522275	0.983786
939.824747	0.983413
940.127179	0.983954
940.429573	0.985571
940.731929	0.984716
941.034246	0.985281
941.336524	0.986320
941.638763	0.985228
941.940964	0.986522
942.243126	0.986276
942.545250	0.987362
942.847335	0.988200
943.149381	0.987464
943.451389	0.988776
943.753359	0.988588
944.055290	0.990979
944.357182	0.990655
944.659036	0.988297
944.960851	0.989907
945.262628	0.989897
945.564367	0.989968
945.866067	0.990943
946.167729	0.990432
946.469352	0.989595
946.770937	0.988016
947.072484	0.990908
947.373992	0.991026
947.675462	0.990012
947.976893	0.991044
948.278286	0.989861
948.579641	0.992658
948.880958	0.990944
949.182236	0.990569
949.483476	0.992221
949.784678	0.990745
950.085841	0.990593
950.386967	0.990839
950.688054	0.991278
950.989103	0.991069
951.290114	0.989326
951.591087	0.990229
951.892021	0.990765
952.192917	0.988616
952.493776	0.988156
952.794596	0.989077
953.095378	0.987450
953.396122	0.987916
953.696828	0.988106
953.997496	0.989934
954.298126	0.990966
954.598718	0.990484
954.899272	0.991927
955.199788	0.990147
955.500266	0.991550
955.800706	0.992682
956.101108	0.992690
956.401472	0.993661
956.701798	0.994840
957.002087	0.993596
957.302337	0.992671
957.602550	0.995224
957.902724	0.993928
958.202861	0.994803
958.502960	0.994667
958.803022	0.993707
959.103045	0.995874
959.403031	0.995150
959.702979	0.995539
960.002889	0.995163
960.302762	0.993852
960.602596	0.996241
960.902393	0.994496
961.202153	0.996500
961.501875	0.996412
961.801559	0.995584
962.101205	0.995581
962.400814	0.996460
962.700385	0.996935
962.999918	0.996128
963.299414	0.996018
963.598873	0.995465
963.898293	0.996857
964.197677	0.995742
964.497022	0.996176
964.796331	0.997505
965.095601	0.996569
965.394835	0.996436
965.694030	0.995936
965.993189	0.997270
966.292309	0.996038
966.591393	0.997672
966.890439	0.997781
967.189447	0.996348
967.488419	0.996862
967.787353	0.996092
968.086249	0.995989
968.385108	0.996725
968.683930	0.998023
968.982714	0.996984
969.281462	0.997451
969.580172	0.996479
969.878844	0.997295
970.177480	0.996415
970.476078	0.996795
970.774639	0.997430
971.073162	0.997646
971.371649	0.996730
971.670098	0.996055
971.968510	0.997313
972.266885	0.995927
972.565223	0.996125
972.863524	0.995612
973.161788	0.995557
973.460014	0.998276
973.758204	0.995758
974.056356	0.995870
974.354471	0.995572
974.652550	0.995335
974.950591	0.995815
975.248595	0.997584
975.546563	0.995779
975.844493	0.998495
976.142386	0.997223
976.440243	0.998000
976.738062	0.997466
977.035845	0.997877
977.333590	0.996719
977.631299	0.997159
977.928971	0.996706
978.226606	0.996482
978.524204	0.995612
978.821765	0.999066
979.119290	0.996313
979.416777	0.996367
979.714228	0.996475
980.011642	0.996385
980.309020	0.996603
980.606360	0.997265
980.903664	0.997849
981.200931	0.996929
981.498162	0.995275
981.795356	0.995327
982.092513	0.994105
982.389633	0.994175
982.686717	0.991004
982.983764	0.992376
983.280775	0.990269
983.577749	0.990374
983.874686	0.991551
984.171587	0.991928
984.468451	0.994128
984.765279	0.996317
985.062070	0.993237
985.358824	0.995662
985.655543	0.993951
985.952224	0.995747
986.248869	0.996087
986.545478	0.997371
986.842050	0.998256
987.138586	0.996093
987.435086	0.996796
987.731549	0.998838
988.027975	0.998830
988.324366	0.997880
988.620719	0.998454
988.917037	0.996149
989.213318	0.998310
989.509563	0.998856
989.805772	0.997028
990.101944	0.998450
990.398080	0.997803
990.694180	0.998389
990.990244	0.997024
991.286271	0.997610
991.582262	0.997463
991.878217	0.998245
992.174136	0.998851
992.470019	0.999358
992.765865	0.997854
993.061676	0.997644
993.357450	0.997908
993.653188	0.996091
993.948890	0.996772
994.244556	0.997389
994.540186	0.997507
994.835780	0.996295
995.131337	0.997077
995.426859	0.996178
995.722345	0.997267
996.017795	0.997222
996.313208	0.995923
996.608586	0.995665
996.903928	0.997558
997.199234	0.996263
997.494504	0.996350
997.789738	0.995851
998.084936	0.997139
998.380099	0.997531
998.675225	0.996926
998.970316	0.997865
999.265371	0.998535
999.560390	0.997659
999.855373	0.998295
1000.150320	0.998088
1000.445232	0.997781
1000.740108	0.999263
1001.034948	0.998669
1001.329752	0.999732
1001.624521	0.999161
1001.919254	0.998751
1002.213951	0.998034
1002.508613	0.997944
1002.803239	0.997941
1003.097829	0.997849
1003.392384	0.999306
1003.686903	0.998257
1003.981386	0.998611
1004.275834	0.998273
1004.570246	0.998584
1004.864623	0.998842
1005.158964	0.998788
1005.453270	0.998083
1005.747540	0.997180
1006.041775	0.997736
1006.335974	0.999888
1006.630138	0.998844
1006.924266	0.999451
1007.218359	0.999730
1007.512416	0.998881
1007.806438	0.998364
1008.100425	0.999533
1008.394376	0.998254
1008.688292	0.998648
1008.982172	0.999495
1009.276017	0.998889
1009.569827	0.998898
1009.863602	0.998735
1010.157341	0.999368
1010.451045	0.999284
1010.744714	0.998479
1011.038347	0.999328
1011.331945	0.998976
1011.625508	0.996696
1011.919036	1.000630
1012.212528	0.998954
1012.505986	0.998459
1012.799408	0.998714
1013.092795	0.999043
1013.386147	0.998980
1013.679464	0.999264
1013.972745	0.997893
1014.265992	0.997035
1014.559204	0.998856
1014.852380	0.998644
1015.145521	0.999755
1015.438628	0.999178
1015.731699	0.998372
1016.024736	0.998412
1016.317737	0.997576
1016.610703	0.999775
1016.903635	0.999147
1017.196531	0.997483
1017.489393	1.000298
1017.782219	0.998617
1018.075011	0.998444
1018.367768	0.999228
1018.660490	0.999195
1018.953177	0.999195
1019.245829	0.999195
