Dividing Wavelength (nm)	Counts (n)	Blue Motor Position (mm): 0.000000	Red Motor Position (mm): 16.500000	
326.493990	1.002159
326.888308	1.002159
327.282561	1.002159
327.676750	1.000850
328.070874	0.999528
328.464933	0.999805
328.858929	1.001194
329.252859	1.000812
329.646726	0.999402
330.040528	1.000120
330.434265	0.999703
330.827938	1.002342
331.221547	1.000692
331.615091	1.000566
332.008571	1.000631
332.401986	1.000766
332.795338	1.000049
333.188625	0.998724
333.581847	1.001040
333.975006	1.000167
334.368100	0.999264
334.761129	1.000777
335.154095	1.001044
335.546996	0.998503
335.939833	0.993267
336.332606	0.993115
336.725315	0.995176
337.117960	0.995503
337.510540	0.994163
337.903056	0.995136
338.295508	0.993083
338.687896	0.994220
339.080220	0.993445
339.472480	0.994660
339.864676	0.993760
340.256807	0.993921
340.648875	0.996055
341.040879	0.993682
341.432818	0.994636
341.824694	0.994049
342.216506	0.995604
342.608253	0.994097
342.999937	0.995130
343.391557	0.995278
343.783113	0.993397
344.174605	0.994473
344.566033	0.994539
344.957397	0.992593
345.348697	0.994300
345.739934	0.993945
346.131106	0.993784
346.522215	0.993023
346.913260	0.993559
347.304241	0.993084
347.695159	0.993870
348.086012	0.993656
348.476802	0.994914
348.867528	0.995047
349.258191	0.992256
349.648789	0.995327
350.039324	0.993842
350.429796	0.996199
350.820203	0.994470
351.210548	0.994565
351.600828	0.993925
351.991045	0.994617
352.381198	0.993155
352.771288	0.994359
353.161314	0.993557
353.551276	0.994070
353.941175	0.994193
354.331010	0.993465
354.720782	0.994862
355.110490	0.993810
355.500135	0.995108
355.889717	0.993836
356.279235	0.994632
356.668689	0.993053
357.058080	0.994444
357.447408	0.996526
357.836672	0.994655
358.225873	0.993877
358.615010	0.993780
359.004084	0.995488
359.393095	0.993789
359.782043	0.994275
360.170927	0.994803
360.559748	0.995025
360.948505	0.993323
361.337199	0.993560
361.725830	0.994652
362.114398	0.993880
362.502903	0.994469
362.891344	0.994869
363.279722	0.992834
363.668037	0.995757
364.056289	0.993187
364.444478	0.994943
364.832603	0.995781
365.220665	0.994137
365.608665	0.993147
365.996601	0.993599
366.384474	0.994093
366.772284	0.994137
367.160031	0.993469
367.547715	0.993067
367.935336	0.993687
368.322893	0.993738
368.710388	0.993629
369.097820	0.993402
369.485189	0.992870
369.872495	0.993172
370.259738	0.991712
370.646918	0.993722
371.034035	0.994968
371.421090	0.994007
371.808081	0.994090
372.195010	0.994765
372.581875	0.994412
372.968678	0.993949
373.355418	0.993565
373.742096	0.993445
374.128710	0.995475
374.515262	0.994079
374.901751	0.993221
375.288177	0.994795
375.674540	0.995958
376.060841	0.994201
376.447079	0.994906
376.833254	0.994412
377.219367	0.994964
377.605417	0.994236
377.991404	0.994943
378.377329	0.994588
378.763191	0.994507
379.148991	0.995685
379.534727	0.996177
379.920402	0.995365
380.306013	0.995048
380.691563	0.995695
381.077049	0.994199
381.462474	0.995234
381.847835	0.995550
382.233134	0.995053
382.618371	0.994598
383.003545	0.995012
383.388657	0.994503
383.773706	0.995688
384.158693	0.994609
384.543618	0.995713
384.928480	0.995980
385.313280	0.995751
385.698017	0.996000
386.082692	0.995846
386.467305	0.995219
386.851856	0.995679
387.236344	0.993989
387.620770	0.994828
388.005133	0.995566
388.389435	0.995266
388.773674	0.994932
389.157851	0.995698
389.541965	0.995047
389.926018	0.994241
390.310008	0.996209
390.693936	0.994666
391.077802	0.995366
391.461606	0.994508
391.845348	0.995128
392.229027	0.996093
392.612645	0.995216
392.996200	0.995965
393.379694	0.995177
393.763125	0.996189
394.146494	0.995667
394.529801	0.994412
394.913047	0.995726
395.296230	0.995104
395.679351	0.994322
396.062410	0.994584
396.445408	0.994498
396.828343	0.993465
397.211217	0.993163
397.594028	0.993496
397.976778	0.991967
398.359466	0.991872
398.742092	0.990645
399.124656	0.990081
399.507158	0.988445
399.889598	0.987080
400.271977	0.985349
400.654294	0.983420
401.036549	0.980668
401.418742	0.978789
401.800874	0.974008
402.182944	0.972078
402.564952	0.968189
402.946898	0.966063
403.328783	0.960669
403.710606	0.957555
404.092367	0.951297
404.474067	0.947045
404.855705	0.941939
405.237282	0.939058
405.618797	0.930905
406.000250	0.922980
406.381642	0.917473
406.762972	0.912151
407.144240	0.907113
407.525447	0.899669
407.906593	0.891427
408.287677	0.883511
408.668700	0.878435
409.049661	0.869263
409.430560	0.860651
409.811399	0.854716
410.192176	0.839914
410.572891	0.835560
410.953545	0.822582
411.334138	0.819037
411.714669	0.808188
412.095139	0.805085
412.475547	0.789092
412.855894	0.781332
413.236180	0.772180
413.616405	0.766245
413.996568	0.753149
414.376670	0.746829
414.756711	0.740698
415.136691	0.731121
415.516609	0.717205
415.896466	0.706840
416.276262	0.695876
416.655997	0.689123
417.035670	0.667847
417.415283	0.655450
417.794834	0.649457
418.174324	0.645727
418.553753	0.644598
418.933121	0.623128
419.312428	0.610768
419.691674	0.607483
420.070859	0.592161
420.449983	0.590982
420.829045	0.575596
421.208047	0.577018
421.586988	0.564937
421.965867	0.557990
422.344686	0.542659
422.723444	0.548036
423.102141	0.557317
423.480777	0.528404
423.859352	0.541821
424.237866	0.516844
424.616319	0.514099
424.994712	0.501255
425.373044	0.506954
425.751314	0.492110
426.129524	0.503611
426.507673	0.485660
426.885762	0.476985
427.263789	0.478710
427.641756	0.485963
428.019662	0.474225
428.397508	0.471142
428.775292	0.473165
429.153016	0.463634
429.530679	0.468280
429.908282	0.459838
430.285824	0.468562
430.663305	0.445782
431.040726	0.465451
431.418086	0.465045
431.795385	0.456030
432.172624	0.453559
432.549802	0.453990
432.926920	0.451629
433.303977	0.450709
433.680974	0.447575
434.057910	0.445605
434.434786	0.444982
434.811601	0.447013
435.188355	0.428970
435.565050	0.437777
435.941683	0.438888
436.318257	0.423271
436.694770	0.423474
437.071222	0.421736
437.447614	0.425769
437.823946	0.432381
438.200218	0.421866
438.576429	0.431697
438.952580	0.424316
439.328670	0.420971
439.704700	0.428049
440.080670	0.428592
440.456580	0.409210
440.832429	0.417451
441.208218	0.428406
441.583947	0.417292
441.959616	0.417278
442.335224	0.422005
442.710773	0.412894
443.086261	0.410668
443.461689	0.425154
443.837057	0.414127
444.212365	0.404553
444.587612	0.411730
444.962800	0.401406
445.337927	0.402954
445.712995	0.428894
446.088002	0.391746
446.462949	0.401782
446.837837	0.406923
447.212664	0.395643
447.587431	0.387294
447.962139	0.357419
448.336786	0.317151
448.711374	0.327181
449.085901	0.370839
449.460369	0.375325
449.834776	0.378550
450.209124	0.358403
450.583412	0.350868
450.957640	0.343746
451.331808	0.355051
451.705917	0.378396
452.079965	0.383186
452.453954	0.371360
452.827883	0.378264
453.201752	0.373001
453.575562	0.384486
453.949311	0.372924
454.323001	0.378693
454.696632	0.374636
455.070202	0.367583
455.443713	0.359324
455.817164	0.354319
456.190556	0.349995
456.563888	0.346942
456.937160	0.344181
457.310373	0.361811
457.683526	0.360114
458.056619	0.365986
458.429653	0.366633
458.802628	0.369617
459.175542	0.364418
459.548398	0.347000
459.921194	0.339460
460.293930	0.339652
460.666607	0.317231
461.039224	0.305498
461.411782	0.301170
461.784280	0.300482
462.156719	0.304828
462.529099	0.309295
462.901419	0.325242
463.273680	0.329565
463.645882	0.329275
464.018024	0.334551
464.390106	0.327931
464.762130	0.312732
465.134094	0.295792
465.505999	0.264740
465.877845	0.235295
466.249631	0.222561
466.621358	0.229767
466.993026	0.243955
467.364634	0.249642
467.736184	0.258587
468.107674	0.267519
468.479105	0.266263
468.850477	0.273290
469.221790	0.279948
469.593043	0.290391
469.964238	0.295158
470.335373	0.294753
470.706449	0.292792
471.077467	0.293151
471.448425	0.255490
471.819324	0.231195
472.190164	0.230592
472.560945	0.259553
472.931667	0.281468
473.302330	0.285510
473.672934	0.297512
474.043479	0.285906
474.413965	0.287474
474.784393	0.290702
475.154761	0.286152
475.525070	0.282890
475.895321	0.289016
476.265513	0.283268
476.635645	0.278400
477.005719	0.278552
477.375734	0.275156
477.745691	0.268458
478.115588	0.264653
478.485427	0.258438
478.855207	0.245389
479.224928	0.227990
479.594591	0.216243
479.964194	0.219432
480.333739	0.220577
480.703226	0.222068
481.072653	0.220845
481.442022	0.216188
481.811333	0.212543
482.180584	0.216304
482.549777	0.221361
482.918912	0.224757
483.287988	0.224416
483.657005	0.223980
484.025964	0.230706
484.394864	0.227822
484.763706	0.228349
485.132489	0.233368
485.501213	0.234098
485.869879	0.232470
486.238487	0.235499
486.607036	0.233622
486.975527	0.238168
487.343959	0.234163
487.712333	0.232953
488.080648	0.234408
488.448905	0.233665
488.817104	0.234831
489.185244	0.229507
489.553326	0.226652
489.921350	0.216335
490.289315	0.198679
490.657222	0.193788
491.025070	0.194902
491.392861	0.197018
491.760593	0.202908
492.128267	0.208223
492.495883	0.213785
492.863440	0.220124
493.230939	0.226279
493.598380	0.227629
493.965763	0.229774
494.333088	0.232218
494.700354	0.233456
495.067563	0.232652
495.434713	0.236144
495.801805	0.233806
496.168839	0.235205
496.535815	0.236691
496.902733	0.236553
497.269593	0.238126
497.636395	0.236083
498.003139	0.236187
498.369825	0.239292
498.736453	0.235464
499.103023	0.237258
499.469535	0.236755
499.835989	0.236998
500.202385	0.237838
500.568723	0.241015
500.935003	0.236332
501.301226	0.240406
501.667390	0.234554
502.033497	0.232887
502.399546	0.235957
502.765537	0.237568
503.131470	0.236129
503.497345	0.232417
503.863163	0.241182
504.228923	0.234153
504.594625	0.232829
504.960269	0.238350
505.325856	0.233497
505.691385	0.237684
506.056856	0.234390
506.422270	0.233964
506.787625	0.236403
507.152924	0.233860
507.518164	0.234161
507.883347	0.235933
508.248472	0.237921
508.613540	0.232623
508.978550	0.234976
509.343503	0.235416
509.708398	0.233628
510.073236	0.231144
510.438016	0.231012
510.802738	0.231861
511.167403	0.230625
511.532010	0.232976
511.896561	0.228387
512.261053	0.227074
512.625488	0.229159
512.989866	0.229576
513.354186	0.229621
513.718449	0.231676
514.082655	0.227838
514.446803	0.229902
514.810894	0.227728
515.174927	0.230271
515.538904	0.229583
515.902822	0.226672
516.266684	0.229269
516.630488	0.230427
516.994235	0.229036
517.357925	0.227852
517.721558	0.226130
518.085133	0.225625
518.448651	0.225924
518.812112	0.228198
519.175516	0.227447
519.538863	0.225341
519.902152	0.227003
520.265385	0.223672
520.628560	0.225494
520.991678	0.226096
521.354739	0.224950
521.717743	0.226461
522.080690	0.226557
522.443580	0.223828
522.806413	0.224742
523.169189	0.224132
523.531908	0.222942
523.894569	0.226541
524.257174	0.226407
524.619722	0.224385
524.982213	0.225293
525.344647	0.224291
525.707025	0.225114
526.069345	0.223121
526.431608	0.224879
526.793815	0.222659
527.155964	0.226928
527.518057	0.225768
527.880093	0.227067
528.242072	0.225353
528.603995	0.227332
528.965860	0.229112
529.327669	0.228056
529.689421	0.228742
530.051117	0.229742
530.412755	0.227456
530.774337	0.229893
531.135862	0.230126
531.497331	0.229199
531.858743	0.231959
532.220098	0.228809
532.581396	0.231455
532.942638	0.231969
533.303824	0.232781
533.664953	0.232371
534.026025	0.234501
534.387040	0.232611
534.747999	0.232166
535.108902	0.231220
535.469748	0.236296
535.830537	0.234204
536.191270	0.234392
536.551947	0.233602
536.912567	0.234064
537.273131	0.235862
537.633638	0.235787
537.994089	0.236118
538.354483	0.237222
538.714821	0.234257
539.075103	0.234110
539.435328	0.234519
539.795497	0.238659
540.155609	0.235072
540.515665	0.233384
540.875665	0.239220
541.235609	0.237285
541.595496	0.237523
541.955328	0.234228
542.315102	0.237001
542.674821	0.237939
543.034483	0.237716
543.394090	0.237472
543.753640	0.239309
544.113134	0.234615
544.472571	0.237657
544.831953	0.234514
545.191278	0.238581
545.550548	0.238393
545.909761	0.234761
546.268918	0.235748
546.628019	0.233988
546.987064	0.236597
547.346053	0.238441
547.704986	0.236269
548.063863	0.236581
548.422684	0.236739
548.781449	0.238968
549.140158	0.236445
549.498811	0.239230
549.857408	0.242615
550.215949	0.237407
550.574434	0.239996
550.932864	0.237937
551.291237	0.236815
551.649555	0.238124
552.007817	0.237826
552.366022	0.238564
552.724173	0.238891
553.082267	0.239128
553.440305	0.235981
553.798288	0.240736
554.156215	0.237031
554.514086	0.237791
554.871902	0.241012
555.229661	0.240308
555.587365	0.240709
555.945014	0.243129
556.302606	0.240018
556.660143	0.242429
557.017625	0.238934
557.375050	0.241445
557.732421	0.238426
558.089735	0.240453
558.446994	0.240501
558.804197	0.239555
559.161345	0.239714
559.518437	0.243088
559.875474	0.241005
560.232455	0.240174
560.589381	0.241509
560.946251	0.241442
561.303065	0.239080
561.659825	0.240795
562.016528	0.241888
562.373177	0.244879
562.729770	0.242278
563.086307	0.244384
563.442789	0.241812
563.799216	0.244761
564.155587	0.243570
564.511904	0.244987
564.868164	0.244589
565.224370	0.244674
565.580520	0.246549
565.936615	0.246190
566.292654	0.249260
566.648638	0.246272
567.004567	0.247258
567.360441	0.247835
567.716260	0.249918
568.072023	0.247609
568.427732	0.248292
568.783385	0.250781
569.138982	0.248731
569.494525	0.248704
569.850013	0.251419
570.205445	0.249602
570.560823	0.252407
570.916145	0.254325
571.271412	0.252839
571.626625	0.253836
571.981782	0.254465
572.336884	0.255518
572.691931	0.255218
573.046923	0.256348
573.401860	0.257512
573.756743	0.259048
574.111570	0.258238
574.466342	0.258478
574.821059	0.257349
575.175722	0.260213
575.530330	0.260327
575.884882	0.260421
576.239380	0.262696
576.593823	0.263377
576.948211	0.262364
577.302544	0.265808
577.656823	0.265304
578.011047	0.265580
578.365216	0.266112
578.719330	0.268114
579.073389	0.268127
579.427394	0.268950
579.781344	0.269979
580.135239	0.271588
580.489080	0.271122
580.842866	0.274060
581.196597	0.273968
581.550273	0.272456
581.903895	0.273673
582.257463	0.271520
582.610975	0.275437
582.964434	0.274063
583.317837	0.276963
583.671186	0.277236
584.024481	0.277512
584.377721	0.279930
584.730906	0.280730
585.084037	0.279669
585.437113	0.281583
585.790135	0.280765
586.143103	0.283834
586.496016	0.285294
586.848874	0.282665
587.201679	0.283250
587.554428	0.286351
587.907124	0.285225
588.259765	0.286144
588.612352	0.286410
588.964884	0.290580
589.317362	0.290021
589.669786	0.289433
590.022155	0.288399
590.374470	0.287965
590.726731	0.290013
591.078937	0.294720
591.431090	0.290899
591.783188	0.295091
592.135232	0.295382
592.487222	0.295178
592.839157	0.293721
593.191038	0.295777
593.542866	0.297729
593.894639	0.301217
594.246358	0.299048
594.598022	0.298592
594.949633	0.302577
595.301190	0.303473
595.652692	0.302315
596.004141	0.298535
596.355535	0.306470
596.706876	0.306718
597.058162	0.309446
597.409395	0.306493
597.760573	0.304087
598.111698	0.307771
598.462768	0.308443
598.813785	0.309457
599.164748	0.310600
599.515657	0.311411
599.866511	0.314531
600.217312	0.309598
600.568060	0.314908
600.918753	0.311244
601.269392	0.312183
601.619978	0.315812
601.970510	0.313160
602.320988	0.313350
602.671412	0.311158
603.021783	0.313842
603.372100	0.314966
603.722363	0.314771
604.072572	0.315526
604.422728	0.315455
604.772830	0.317441
605.122878	0.316577
605.472872	0.317455
605.822813	0.315898
606.172701	0.318078
606.522534	0.315978
606.872314	0.315874
607.222041	0.317075
607.571714	0.315104
607.921333	0.316160
608.270899	0.316432
608.620411	0.313123
608.969870	0.316671
609.319276	0.316714
609.668627	0.316516
610.017926	0.315304
610.367171	0.313808
610.716362	0.314331
611.065500	0.314619
611.414585	0.313753
611.763616	0.313966
612.112594	0.314207
612.461518	0.313701
612.810389	0.311307
613.159207	0.314044
613.507971	0.315779
613.856682	0.311381
614.205340	0.313322
614.553945	0.309957
614.902496	0.313958
615.250994	0.311419
615.599439	0.312240
615.947830	0.312043
616.296169	0.312722
616.644454	0.312215
616.992686	0.312789
617.340864	0.310178
617.688990	0.314035
618.037063	0.310411
618.385082	0.312519
618.733048	0.309174
619.080961	0.311348
619.428821	0.311143
619.776628	0.310633
620.124382	0.312555
620.472083	0.312638
620.819731	0.312293
621.167326	0.316164
621.514868	0.315690
621.862357	0.320115
622.209793	0.319417
622.557176	0.321937
622.904506	0.322833
623.251783	0.325564
623.599007	0.327261
623.946179	0.327305
624.293297	0.329368
624.640363	0.332828
624.987376	0.333529
625.334336	0.336228
625.681243	0.338027
626.028097	0.338962
626.374899	0.339922
626.721647	0.340177
627.068343	0.343757
627.414987	0.344137
627.761577	0.346622
628.108115	0.344864
628.454600	0.350126
628.801032	0.347158
629.147412	0.349565
629.493739	0.349634
629.840014	0.352474
630.186236	0.350468
630.532405	0.356062
630.878521	0.353767
631.224585	0.355458
631.570597	0.359197
631.916556	0.357741
632.262462	0.357944
632.608316	0.359975
632.954117	0.361007
633.299866	0.361859
633.645562	0.361745
633.991206	0.366510
634.336797	0.369027
634.682336	0.371430
635.027823	0.373037
635.373257	0.373590
635.718639	0.377357
636.063968	0.376378
636.409245	0.382253
636.754470	0.382144
637.099642	0.385021
637.444762	0.388822
637.789829	0.387185
638.134845	0.391288
638.479808	0.391740
638.824719	0.391856
639.169577	0.396071
639.514383	0.394505
639.859137	0.398845
640.203839	0.398323
640.548489	0.399066
640.893086	0.400375
641.237632	0.402298
641.582125	0.400659
641.926566	0.402119
642.270955	0.402789
642.615292	0.402845
642.959576	0.401998
643.303809	0.402470
643.647990	0.402093
643.992118	0.402668
644.336195	0.406080
644.680219	0.404688
645.024192	0.404741
645.368112	0.398878
645.711981	0.398005
646.055797	0.392542
646.399562	0.395711
646.743274	0.387143
647.086935	0.384860
647.430544	0.384539
647.774101	0.384008
648.117606	0.383953
648.461059	0.383922
648.804460	0.386685
649.147810	0.391864
649.491108	0.393362
649.834354	0.394628
650.177548	0.400325
650.520690	0.405956
650.863781	0.406832
651.206820	0.406029
651.549807	0.411295
651.892742	0.414648
652.235626	0.414096
652.578458	0.415262
652.921238	0.421627
653.263967	0.419355
653.606644	0.423183
653.949269	0.422884
654.291843	0.426945
654.634365	0.423629
654.976836	0.426582
655.319255	0.426557
655.661622	0.427982
656.003938	0.428542
656.346203	0.431154
656.688416	0.428923
657.030577	0.432979
657.372687	0.434126
657.714746	0.435352
658.056753	0.432697
658.398708	0.436654
658.740612	0.437274
659.082465	0.434109
659.424266	0.434487
659.766016	0.433432
660.107715	0.436637
660.449362	0.435115
660.790958	0.435751
661.132503	0.435913
661.473996	0.434110
661.815438	0.434944
662.156829	0.435380
662.498168	0.435173
662.839456	0.437761
663.180693	0.435139
663.521879	0.434841
663.863013	0.435697
664.204097	0.434119
664.545129	0.431312
664.886110	0.431794
665.227040	0.428859
665.567918	0.432309
665.908746	0.429079
666.249522	0.428922
666.590248	0.429633
666.930922	0.428668
667.271545	0.427350
667.612118	0.427195
667.952639	0.429392
668.293109	0.427249
668.633528	0.430821
668.973896	0.430249
669.314213	0.430637
669.654480	0.432620
669.994695	0.433261
670.334859	0.433642
670.674973	0.433452
671.015035	0.434267
671.355047	0.433730
671.695008	0.435310
672.034918	0.436969
672.374777	0.436113
672.714585	0.436856
673.054342	0.437128
673.394049	0.437596
673.733705	0.435178
674.073310	0.436198
674.412864	0.438779
674.752368	0.439926
675.091820	0.439383
675.431223	0.444177
675.770574	0.444260
676.109875	0.447126
676.449125	0.446951
676.788324	0.449301
677.127473	0.455006
677.466571	0.454835
677.805619	0.456442
678.144616	0.457064
678.483562	0.458881
678.822458	0.461603
679.161303	0.462365
679.500098	0.462696
679.838842	0.464546
680.177535	0.463851
680.516179	0.462596
680.854771	0.461767
681.193314	0.454767
681.531805	0.446478
681.870247	0.435321
682.208638	0.427352
682.546978	0.426164
682.885268	0.428061
683.223508	0.434556
683.561697	0.437786
683.899836	0.440969
684.237925	0.444302
684.575963	0.446955
684.913951	0.450084
685.251889	0.445530
685.589776	0.447911
685.927614	0.449810
686.265401	0.444507
686.603137	0.445328
686.940824	0.439708
687.278460	0.438111
687.616046	0.437190
687.953582	0.432373
688.291068	0.433757
688.628504	0.429186
688.965889	0.431229
689.303224	0.435707
689.640510	0.439350
689.977745	0.444963
690.314930	0.453182
690.652065	0.457923
690.989150	0.465290
691.326185	0.471933
691.663170	0.476774
692.000105	0.483325
692.336990	0.490745
692.673825	0.492436
693.010610	0.499875
693.347345	0.506108
693.684030	0.506934
694.020665	0.511806
694.357251	0.520766
694.693786	0.520364
695.030272	0.524318
695.366707	0.528231
695.703093	0.531005
696.039429	0.529127
696.375716	0.530362
696.711952	0.533394
697.048139	0.535060
697.384276	0.537377
697.720363	0.535438
698.056400	0.534507
698.392388	0.540496
698.728326	0.543498
699.064214	0.546403
699.400053	0.547119
699.735842	0.550673
700.071581	0.553744
700.407270	0.555898
700.742910	0.558939
701.078501	0.565292
701.414042	0.565293
701.749533	0.568735
702.084974	0.576482
702.420366	0.569492
702.755709	0.577463
703.091002	0.585001
703.426246	0.578753
703.761440	0.584723
704.096584	0.588862
704.431679	0.586166
704.766725	0.587704
705.101721	0.589860
705.436668	0.585959
705.771565	0.593087
706.106413	0.590249
706.441212	0.585568
706.775961	0.584092
707.110661	0.586686
707.445311	0.582609
707.779913	0.580593
708.114465	0.579046
708.448967	0.575241
708.783421	0.567229
709.117825	0.562030
709.452180	0.562208
709.786485	0.555408
710.120742	0.545329
710.454949	0.547847
710.789107	0.539816
711.123216	0.530637
711.457275	0.532964
711.791286	0.523385
712.125247	0.522010
712.459159	0.533506
712.793023	0.525495
713.126837	0.529748
713.460602	0.530254
713.794318	0.539650
714.127985	0.538517
714.461602	0.547883
714.795171	0.551634
715.128691	0.559743
715.462162	0.566993
715.795584	0.572223
716.128957	0.575076
716.462281	0.581961
716.795556	0.585752
717.128782	0.590659
717.461960	0.600511
717.795088	0.598871
718.128167	0.604723
718.461198	0.613639
718.794180	0.613957
719.127113	0.616825
719.459997	0.620467
719.792833	0.626886
720.125619	0.628240
720.458357	0.633416
720.791046	0.633608
721.123686	0.636723
721.456278	0.643724
721.788821	0.640923
722.121315	0.645228
722.453761	0.648998
722.786158	0.646830
723.118506	0.643480
723.450805	0.651919
723.783056	0.647696
724.115259	0.645013
724.447412	0.644695
724.779518	0.645783
725.111574	0.645045
725.443582	0.640017
725.775542	0.642526
726.107453	0.634533
726.439315	0.633786
726.771129	0.633282
727.102895	0.626737
727.434612	0.619136
727.766281	0.616843
728.097901	0.616128
728.429473	0.616817
728.760996	0.615212
729.092471	0.614306
729.423897	0.618733
729.755276	0.617711
730.086606	0.617634
730.417887	0.611664
730.749120	0.602571
731.080305	0.593601
731.411442	0.590418
731.742530	0.594403
732.073570	0.594333
732.404562	0.586079
732.735506	0.587513
733.066401	0.592813
733.397249	0.601900
733.728048	0.612670
734.058798	0.625843
734.389501	0.636619
734.720156	0.646499
735.050762	0.653566
735.381320	0.654990
735.711831	0.664085
736.042293	0.669011
736.372707	0.664657
736.703073	0.669606
737.033391	0.671984
737.363661	0.668306
737.693883	0.664028
738.024056	0.663045
738.354182	0.662491
738.684260	0.652669
739.014290	0.648611
739.344272	0.649730
739.674207	0.642512
740.004093	0.641439
740.333931	0.642676
740.663722	0.642698
740.993464	0.643327
741.323159	0.647329
741.652806	0.651332
741.982405	0.655980
742.311956	0.660940
742.641460	0.663153
742.970915	0.667187
743.300323	0.674252
743.629683	0.681341
743.958996	0.682816
744.288260	0.686659
744.617477	0.693458
744.946647	0.694609
745.275768	0.699485
745.604842	0.701002
745.933869	0.709891
746.262847	0.710488
746.591778	0.704055
746.920662	0.710617
747.249498	0.716678
747.578286	0.708214
747.907027	0.703763
748.235720	0.703957
748.564365	0.699754
748.892963	0.698788
749.221514	0.702625
749.550017	0.706850
749.878473	0.707914
750.206881	0.713976
750.535242	0.715461
750.863555	0.714371
751.191821	0.716286
751.520039	0.719174
751.848210	0.723616
752.176334	0.716564
752.504411	0.715945
752.832440	0.723887
753.160421	0.727406
753.488356	0.725899
753.816243	0.723769
754.144082	0.732158
754.471875	0.734618
754.799620	0.730947
755.127318	0.731804
755.454969	0.731593
755.782572	0.731680
756.110129	0.736841
756.437638	0.738701
756.765100	0.734225
757.092515	0.733382
757.419882	0.732407
757.747203	0.737079
758.074477	0.736547
758.401703	0.733763
758.728882	0.729260
759.056014	0.727746
759.383099	0.726492
759.710138	0.728330
760.037129	0.725164
760.364073	0.718713
760.690970	0.720387
761.017820	0.727376
761.344623	0.722108
761.671379	0.712744
761.998088	0.701505
762.324751	0.678987
762.651366	0.637201
762.977935	0.570120
763.304456	0.517771
763.630931	0.508726
763.957359	0.547434
764.283740	0.592211
764.610074	0.619168
764.936362	0.650137
765.262602	0.677157
765.588796	0.697317
765.914943	0.716728
766.241044	0.734458
766.567097	0.741800
766.893104	0.750872
767.219064	0.756806
767.544978	0.763474
767.870845	0.778156
768.196665	0.781540
768.522438	0.779269
768.848165	0.779567
769.173846	0.790012
769.499479	0.793756
769.825066	0.795830
770.150607	0.802306
770.476101	0.796958
770.801548	0.799009
771.126949	0.809978
771.452303	0.812991
771.777611	0.812842
772.102872	0.811499
772.428087	0.816974
772.753256	0.821171
773.078378	0.823716
773.403453	0.831155
773.728482	0.835572
774.053465	0.829449
774.378401	0.832854
774.703291	0.841152
775.028135	0.840547
775.352932	0.842207
775.677683	0.845996
776.002388	0.846405
776.327046	0.845308
776.651658	0.848515
776.976224	0.851705
777.300743	0.852978
777.625216	0.855236
777.949643	0.857068
778.274024	0.856268
778.598359	0.857628
778.922647	0.856097
779.246889	0.856247
779.571086	0.861958
779.895236	0.863374
780.219339	0.861153
780.543397	0.857548
780.867409	0.855590
781.191374	0.858739
781.515294	0.859300
781.839167	0.858426
782.162995	0.861670
782.486776	0.859425
782.810511	0.859990
783.134201	0.863982
783.457844	0.861248
783.781441	0.863911
784.104993	0.869714
784.428498	0.870128
784.751958	0.865955
785.075372	0.868977
785.398739	0.872175
785.722061	0.868285
786.045337	0.863960
786.368568	0.869345
786.691752	0.871559
787.014891	0.857115
787.337983	0.847703
787.661030	0.840312
787.984031	0.822890
788.306987	0.809873
788.629897	0.811831
788.952760	0.815766
789.275579	0.820935
789.598351	0.836451
789.921078	0.848706
790.243759	0.850804
790.566395	0.857024
790.888984	0.863639
791.211529	0.868598
791.534027	0.871172
791.856480	0.873436
792.178888	0.879673
792.501249	0.880873
792.823566	0.882583
793.145836	0.882808
793.468062	0.884985
793.790241	0.883860
794.112375	0.882501
794.434464	0.877819
794.756507	0.877658
795.078505	0.877816
795.400457	0.872838
795.722364	0.859318
796.044226	0.853236
796.366042	0.852442
796.687812	0.854687
797.009538	0.850651
797.331218	0.855022
797.652852	0.859740
797.974442	0.864492
798.295986	0.862868
798.617484	0.865401
798.938938	0.870537
799.260346	0.875370
799.581709	0.877983
799.903026	0.879696
800.224299	0.880497
800.545526	0.884402
800.866708	0.887363
801.187845	0.891881
801.508936	0.891242
801.829983	0.889527
802.150984	0.892650
802.471940	0.896237
802.792851	0.897079
803.113717	0.898114
803.434538	0.895881
803.755314	0.898033
804.076045	0.899323
804.396731	0.900326
804.717372	0.899447
805.037967	0.902426
805.358518	0.899166
805.679024	0.896025
805.999485	0.896517
806.319901	0.896921
806.640272	0.897906
806.960598	0.896401
807.280879	0.894263
807.601115	0.892336
807.921306	0.895276
808.241453	0.895830
808.561554	0.893852
808.881611	0.893898
809.201623	0.894183
809.521590	0.896084
809.841513	0.896908
810.161390	0.896383
810.481223	0.897504
810.801011	0.901083
811.120755	0.902670
811.440453	0.901336
811.760107	0.900103
812.079716	0.900765
812.399281	0.903366
812.718801	0.906092
813.038276	0.906136
813.357707	0.906169
813.677093	0.903294
813.996434	0.906742
814.315731	0.909592
814.634983	0.909942
814.954191	0.906606
815.273354	0.905014
815.592473	0.900894
815.911547	0.902000
816.230577	0.898731
816.549562	0.895758
816.868502	0.896743
817.187399	0.893048
817.506250	0.887176
817.825058	0.890373
818.143821	0.885697
818.462539	0.880164
818.781213	0.872384
819.099843	0.861569
819.418429	0.845971
819.736970	0.828110
820.055466	0.809817
820.373919	0.784528
820.692327	0.750207
821.010691	0.715921
821.329011	0.637743
821.647286	0.521931
821.965517	0.407849
822.283704	0.365020
822.601847	0.366685
822.919945	0.402265
823.237999	0.435959
823.556010	0.482863
823.873976	0.539164
824.191897	0.590011
824.509775	0.632504
824.827609	0.678269
825.145398	0.700258
825.463144	0.704020
825.780845	0.686123
826.098502	0.668299
826.416116	0.622052
826.733685	0.576971
827.051210	0.568614
827.368692	0.583483
827.686129	0.621285
828.003522	0.675401
828.320872	0.722054
828.638177	0.766832
828.955439	0.798675
829.272656	0.821312
829.589830	0.838119
829.906960	0.853623
830.224046	0.865942
830.541088	0.877057
830.858086	0.880941
831.175041	0.887584
831.491952	0.885869
831.808819	0.882963
832.125642	0.876466
832.442421	0.861594
832.759157	0.839327
833.075849	0.792696
833.392497	0.729679
833.709101	0.688647
834.025662	0.698295
834.342179	0.729250
834.658653	0.768844
834.975083	0.805228
835.291469	0.830786
835.607811	0.854067
835.924110	0.869900
836.240366	0.886884
836.556578	0.901243
836.872746	0.907873
837.188871	0.914396
837.504952	0.919603
837.820990	0.923168
838.136984	0.927605
838.452935	0.929639
838.768842	0.931888
839.084706	0.924942
839.400526	0.899417
839.716303	0.859218
840.032037	0.835407
840.347727	0.840418
840.663373	0.857762
840.978977	0.879902
841.294537	0.901996
841.610054	0.919165
841.925527	0.925780
842.240957	0.933118
842.556344	0.940271
842.871687	0.946106
843.186987	0.950189
843.502244	0.950577
843.817458	0.952832
844.132629	0.955393
844.447756	0.960559
844.762840	0.960289
845.077881	0.959221
845.392879	0.959521
845.707833	0.962862
846.022745	0.964411
846.337613	0.965318
846.652438	0.965755
846.967221	0.965257
847.281960	0.964909
847.596656	0.967960
847.911309	0.966667
848.225919	0.967612
848.540485	0.968913
848.855009	0.967729
849.169490	0.969429
849.483928	0.969185
849.798323	0.969581
850.112675	0.970518
850.426984	0.969976
850.741251	0.970238
851.055474	0.970416
851.369654	0.968646
851.683792	0.969551
851.997887	0.969387
852.311938	0.971265
852.625947	0.969902
852.939914	0.968354
853.253837	0.968643
853.567718	0.971257
853.881555	0.970173
854.195350	0.968679
854.509103	0.969986
854.822812	0.970478
855.136479	0.970958
855.450103	0.969985
855.763685	0.968221
856.077224	0.968745
856.390720	0.970801
856.704173	0.971472
857.017584	0.966498
857.330953	0.967517
857.644278	0.968347
857.957561	0.967522
858.270802	0.968306
858.584000	0.968805
858.897155	0.967211
859.210268	0.968608
859.523339	0.968560
859.836367	0.970833
860.149352	0.969907
860.462295	0.969622
860.775195	0.969592
861.088054	0.969625
861.400869	0.969213
861.713642	0.970598
862.026373	0.970100
862.339062	0.970125
862.651708	0.968091
862.964312	0.969606
863.276873	0.968296
863.589392	0.968859
863.901869	0.965379
864.214303	0.965565
864.526696	0.964165
864.839045	0.963993
865.151353	0.960590
865.463619	0.962906
865.775842	0.962955
866.088023	0.962154
866.400162	0.963156
866.712258	0.962072
867.024313	0.963094
867.336325	0.963362
867.648296	0.963541
867.960224	0.962343
868.272110	0.961395
868.583954	0.963501
868.895755	0.964068
869.207515	0.962092
869.519233	0.959491
869.830909	0.960637
870.142542	0.962076
870.454134	0.961813
870.765684	0.960902
871.077191	0.957735
871.388657	0.959215
871.700081	0.958550
872.011463	0.958179
872.322803	0.958597
872.634101	0.956043
872.945357	0.954465
873.256571	0.953408
873.567744	0.952264
873.878874	0.953481
874.189963	0.952163
874.501010	0.951257
874.812015	0.949855
875.122979	0.951045
875.433900	0.952951
875.744780	0.954048
876.055618	0.951954
876.366415	0.949428
876.677169	0.949715
876.987882	0.951251
877.298554	0.950650
877.609183	0.947240
877.919771	0.944553
878.230317	0.943200
878.540822	0.939936
878.851285	0.934247
879.161707	0.927362
879.472087	0.915266
879.782425	0.898418
880.092722	0.864666
880.402977	0.811549
880.713191	0.750547
881.023363	0.691538
881.333494	0.657205
881.643583	0.629095
881.953631	0.629559
882.263637	0.657622
882.573602	0.696927
882.883526	0.723267
883.193408	0.746543
883.503248	0.769620
883.813048	0.797887
884.122806	0.827612
884.432522	0.848929
884.742197	0.870080
885.051831	0.880512
885.361424	0.891003
885.670975	0.903323
885.980485	0.914049
886.289954	0.919528
886.599382	0.924831
886.908768	0.928964
887.218113	0.934054
887.527417	0.938669
887.836680	0.941655
888.145901	0.942920
888.455082	0.946074
888.764221	0.949880
889.073319	0.952240
889.382376	0.953620
889.691392	0.952551
890.000366	0.953191
890.309300	0.953374
890.618193	0.953227
890.927044	0.951856
891.235855	0.951708
891.544625	0.951510
891.853353	0.951384
892.162041	0.950367
892.470687	0.942720
892.779293	0.938572
893.087858	0.934198
893.396381	0.925888
893.704864	0.912933
894.013306	0.889804
894.321707	0.862003
894.630068	0.847583
894.938387	0.841995
895.246665	0.844261
895.554903	0.856328
895.863100	0.869181
896.171256	0.886794
896.479371	0.905531
896.787446	0.919352
897.095480	0.924902
897.403473	0.928572
897.711425	0.933756
898.019336	0.940054
898.327207	0.942964
898.635038	0.945646
898.942827	0.944490
899.250576	0.947661
899.558284	0.951955
899.865952	0.953995
900.173579	0.955024
900.481165	0.955362
900.788711	0.959743
901.096216	0.960998
901.403681	0.962429
901.711105	0.962375
902.018489	0.963684
902.325832	0.961498
902.633135	0.962060
902.940397	0.955577
903.247619	0.943529
903.554800	0.918216
903.861941	0.877863
904.169041	0.842084
904.476101	0.824005
904.783121	0.825045
905.090100	0.842217
905.397039	0.862745
905.703938	0.884994
906.010796	0.905896
906.317614	0.922890
906.624391	0.935107
906.931129	0.943484
907.237826	0.952350
907.544483	0.959099
907.851099	0.962517
908.157675	0.968241
908.464211	0.969796
908.770707	0.972234
909.077163	0.974955
909.383578	0.974658
909.689954	0.974917
909.996289	0.975942
910.302584	0.978448
910.608839	0.979606
910.915054	0.979026
911.221229	0.978733
911.527363	0.976794
911.833458	0.977046
912.139513	0.975968
912.445527	0.975720
912.751502	0.973212
913.057436	0.973005
913.363331	0.970046
913.669186	0.965906
913.975000	0.960984
914.280775	0.954971
914.586510	0.947622
914.892205	0.934047
915.197859	0.913706
915.503475	0.886650
915.809050	0.866828
916.114585	0.861200
916.420081	0.858112
916.725536	0.854806
917.030952	0.862150
917.336328	0.875954
917.641665	0.890814
917.946961	0.906916
918.252218	0.918469
918.557435	0.926405
918.862612	0.936497
919.167750	0.941690
919.472848	0.946711
919.777906	0.952013
920.082925	0.957901
920.387904	0.961472
920.692843	0.964028
920.997743	0.963937
921.302603	0.968455
921.607423	0.969031
921.912204	0.971436
922.216946	0.971617
922.521647	0.972777
922.826310	0.975489
923.130932	0.975712
923.435516	0.977894
923.740059	0.979513
924.044564	0.978853
924.349028	0.980158
924.653454	0.982027
924.957840	0.985057
925.262186	0.983438
925.566493	0.983422
925.870761	0.984836
926.174989	0.986356
926.479178	0.986990
926.783328	0.988648
927.087438	0.988675
927.391509	0.987578
927.695541	0.989953
927.999533	0.989778
928.303486	0.988797
928.607400	0.990565
928.911275	0.989967
929.215110	0.990053
929.518906	0.991805
929.822663	0.990285
930.126381	0.991770
930.430060	0.989156
930.733699	0.991265
931.037299	0.989395
931.340861	0.990738
931.644383	0.990335
931.947866	0.989597
932.251309	0.990271
932.554714	0.990812
932.858080	0.989811
933.161407	0.990445
933.464694	0.991676
933.767943	0.989934
934.071153	0.992053
934.374323	0.992752
934.677455	0.991724
934.980548	0.991315
935.283602	0.991525
935.586617	0.991698
935.889593	0.991245
936.192530	0.990665
936.495428	0.990968
936.798287	0.990207
937.101108	0.990975
937.403890	0.989774
937.706632	0.988913
938.009336	0.987488
938.312002	0.986709
938.614628	0.985138
938.917216	0.983080
939.219765	0.981528
939.522275	0.983102
939.824747	0.983367
940.127179	0.983367
940.429573	0.985889
940.731929	0.984508
941.034246	0.984217
941.336524	0.985272
941.638763	0.986823
941.940964	0.986761
942.243126	0.986039
942.545250	0.987278
942.847335	0.988976
943.149381	0.987727
943.451389	0.987351
943.753359	0.988029
944.055290	0.990301
944.357182	0.989049
944.659036	0.988490
944.960851	0.988229
945.262628	0.990086
945.564367	0.989698
945.866067	0.989333
946.167729	0.990152
946.469352	0.990285
946.770937	0.988438
947.072484	0.991153
947.373992	0.990068
947.675462	0.990539
947.976893	0.990381
948.278286	0.989506
948.579641	0.992033
948.880958	0.989811
949.182236	0.991850
949.483476	0.991133
949.784678	0.990293
950.085841	0.990734
950.386967	0.990806
950.688054	0.989863
950.989103	0.992161
951.290114	0.988765
951.591087	0.989678
951.892021	0.989338
952.192917	0.988212
952.493776	0.987990
952.794596	0.988343
953.095378	0.986745
953.396122	0.987702
953.696828	0.987756
953.997496	0.989141
954.298126	0.990733
954.598718	0.989965
954.899272	0.991103
955.199788	0.990640
955.500266	0.991986
955.800706	0.993524
956.101108	0.993916
956.401472	0.993140
956.701798	0.993998
957.002087	0.993162
957.302337	0.993917
957.602550	0.995273
957.902724	0.994198
958.202861	0.994667
958.502960	0.994878
958.803022	0.993552
959.103045	0.996140
959.403031	0.996436
959.702979	0.995132
960.002889	0.996126
960.302762	0.993994
960.602596	0.997460
960.902393	0.994970
961.202153	0.996840
961.501875	0.997191
961.801559	0.995228
962.101205	0.996440
962.400814	0.996583
962.700385	0.995952
962.999918	0.995921
963.299414	0.996797
963.598873	0.996864
963.898293	0.995829
964.197677	0.996838
964.497022	0.997553
964.796331	0.998106
965.095601	0.997452
965.394835	0.996077
965.694030	0.996231
965.993189	0.998045
966.292309	0.996993
966.591393	0.996502
966.890439	0.997839
967.189447	0.996860
967.488419	0.998058
967.787353	0.996923
968.086249	0.996231
968.385108	0.997113
968.683930	0.997004
968.982714	0.997755
969.281462	0.997186
969.580172	0.996573
969.878844	0.998198
970.177480	0.997686
970.476078	0.997495
970.774639	0.997272
971.073162	0.997987
971.371649	0.995990
971.670098	0.997338
971.968510	0.997932
972.266885	0.995952
972.565223	0.996320
972.863524	0.995310
973.161788	0.996707
973.460014	0.998430
973.758204	0.995925
974.056356	0.996601
974.354471	0.995297
974.652550	0.995283
974.950591	0.995497
975.248595	0.996178
975.546563	0.996418
975.844493	0.997288
976.142386	0.997299
976.440243	0.998300
976.738062	0.997495
977.035845	0.998879
977.333590	0.998179
977.631299	0.998275
977.928971	0.997103
978.226606	0.996713
978.524204	0.996003
978.821765	0.998868
979.119290	0.996845
979.416777	0.996958
979.714228	0.998019
980.011642	0.996180
980.309020	0.997374
980.606360	0.996858
980.903664	0.998872
981.200931	0.996018
981.498162	0.995267
981.795356	0.994865
982.092513	0.994430
982.389633	0.995549
982.686717	0.991620
982.983764	0.991322
983.280775	0.990423
983.577749	0.990757
983.874686	0.991923
984.171587	0.992045
984.468451	0.994632
984.765279	0.995673
985.062070	0.994230
985.358824	0.995329
985.655543	0.995080
985.952224	0.996259
986.248869	0.996226
986.545478	0.997662
986.842050	0.998536
987.138586	0.996294
987.435086	0.996647
987.731549	1.000270
988.027975	0.996661
988.324366	0.998576
988.620719	0.996976
988.917037	0.996190
989.213318	0.997861
989.509563	0.999161
989.805772	0.998533
990.101944	0.998290
990.398080	0.997771
990.694180	0.998174
990.990244	0.997908
991.286271	0.997995
991.582262	0.998139
991.878217	0.997735
992.174136	0.999969
992.470019	0.999793
992.765865	0.998419
993.061676	0.997720
993.357450	0.998760
993.653188	0.997171
993.948890	0.998278
994.244556	0.998007
994.540186	0.997489
994.835780	0.996311
995.131337	0.998907
995.426859	0.997896
995.722345	0.996679
996.017795	0.997440
996.313208	0.997163
996.608586	0.996282
996.903928	0.996806
997.199234	0.995565
997.494504	0.996851
997.789738	0.994814
998.084936	0.996675
998.380099	0.997917
998.675225	0.997976
998.970316	0.998251
999.265371	0.998762
999.560390	0.997298
999.855373	0.999755
1000.150320	0.998028
1000.445232	0.998321
1000.740108	0.998235
1001.034948	0.998325
1001.329752	0.998306
1001.624521	0.997511
1001.919254	0.998386
1002.213951	0.999442
1002.508613	0.998573
1002.803239	0.998981
1003.097829	0.998554
1003.392384	0.999425
1003.686903	0.998090
1003.981386	0.998718
1004.275834	0.998478
1004.570246	0.998982
1004.864623	1.000123
1005.158964	0.998575
1005.453270	0.997644
1005.747540	0.997775
1006.041775	0.998507
1006.335974	0.999044
1006.630138	0.999622
1006.924266	1.000199
1007.218359	1.000904
1007.512416	0.999304
1007.806438	0.999664
1008.100425	1.000028
1008.394376	0.998880
1008.688292	1.000398
1008.982172	1.001722
1009.276017	0.999529
1009.569827	0.997999
1009.863602	0.998809
1010.157341	1.000039
1010.451045	0.999736
1010.744714	0.998961
1011.038347	0.999522
1011.331945	0.999013
1011.625508	0.997756
1011.919036	0.999167
1012.212528	0.999093
1012.505986	0.998419
1012.799408	0.998640
1013.092795	0.999469
1013.386147	0.999517
1013.679464	0.999971
1013.972745	0.999098
1014.265992	0.998006
1014.559204	0.998443
1014.852380	0.998919
1015.145521	0.999161
1015.438628	0.999500
1015.731699	0.998585
1016.024736	0.999225
1016.317737	0.999166
1016.610703	0.999256
1016.903635	0.999761
1017.196531	0.999371
1017.489393	0.999635
1017.782219	0.998773
1018.075011	0.998540
1018.367768	0.998786
1018.660490	0.999888
1018.953177	0.999888
1019.245829	0.999888
