Dividing Wavelength (nm)	Counts (n)	Blue Motor Position (mm): 0.000000	Red Motor Position (mm): 22.200000	
326.493990	1.000859
326.888308	1.000859
327.282561	1.000859
327.676750	0.999721
328.070874	0.998688
328.464933	1.000958
328.858929	0.999384
329.252859	1.000013
329.646726	0.998517
330.040528	0.999692
330.434265	0.999486
330.827938	0.999948
331.221547	1.001040
331.615091	1.000702
332.008571	1.000166
332.401986	1.000131
332.795338	1.000640
333.188625	0.997455
333.581847	1.000703
333.975006	0.998659
334.368100	0.999372
334.761129	0.999819
335.154095	1.000427
335.546996	0.997984
335.939833	0.993778
336.332606	0.994228
336.725315	0.994611
337.117960	0.995112
337.510540	0.993859
337.903056	0.995497
338.295508	0.993293
338.687896	0.993515
339.080220	0.994671
339.472480	0.994703
339.864676	0.994976
340.256807	0.995079
340.648875	0.994976
341.040879	0.995663
341.432818	0.994297
341.824694	0.994189
342.216506	0.994975
342.608253	0.993977
342.999937	0.994327
343.391557	0.993956
343.783113	0.994410
344.174605	0.994048
344.566033	0.995175
344.957397	0.994328
345.348697	0.993893
345.739934	0.994540
346.131106	0.993624
346.522215	0.993576
346.913260	0.993801
347.304241	0.994185
347.695159	0.994235
348.086012	0.992945
348.476802	0.994741
348.867528	0.994407
349.258191	0.992369
349.648789	0.994556
350.039324	0.994411
350.429796	0.995004
350.820203	0.994599
351.210548	0.993563
351.600828	0.994519
351.991045	0.993779
352.381198	0.992938
352.771288	0.993313
353.161314	0.995092
353.551276	0.994864
353.941175	0.994608
354.331010	0.992631
354.720782	0.994431
355.110490	0.994774
355.500135	0.994794
355.889717	0.993680
356.279235	0.994363
356.668689	0.994176
357.058080	0.992603
357.447408	0.995469
357.836672	0.995334
358.225873	0.995002
358.615010	0.994676
359.004084	0.995613
359.393095	0.994567
359.782043	0.994012
360.170927	0.995435
360.559748	0.994840
360.948505	0.994378
361.337199	0.993288
361.725830	0.994690
362.114398	0.995165
362.502903	0.994055
362.891344	0.994676
363.279722	0.993965
363.668037	0.995132
364.056289	0.994645
364.444478	0.993899
364.832603	0.994438
365.220665	0.993215
365.608665	0.995141
365.996601	0.992849
366.384474	0.993957
366.772284	0.994581
367.160031	0.992127
367.547715	0.994047
367.935336	0.994616
368.322893	0.993671
368.710388	0.994177
369.097820	0.994589
369.485189	0.994048
369.872495	0.993718
370.259738	0.991517
370.646918	0.993980
371.034035	0.995128
371.421090	0.994338
371.808081	0.992759
372.195010	0.994187
372.581875	0.993396
372.968678	0.993900
373.355418	0.994591
373.742096	0.994220
374.128710	0.994901
374.515262	0.994173
374.901751	0.994788
375.288177	0.995025
375.674540	0.994699
376.060841	0.993740
376.447079	0.994844
376.833254	0.995015
377.219367	0.994529
377.605417	0.994707
377.991404	0.994993
378.377329	0.994124
378.763191	0.994825
379.148991	0.995579
379.534727	0.995847
379.920402	0.994819
380.306013	0.995167
380.691563	0.995564
381.077049	0.994609
381.462474	0.994974
381.847835	0.995534
382.233134	0.995870
382.618371	0.996002
383.003545	0.994628
383.388657	0.994637
383.773706	0.996421
384.158693	0.995683
384.543618	0.995283
384.928480	0.995851
385.313280	0.995248
385.698017	0.995331
386.082692	0.995662
386.467305	0.996266
386.851856	0.995543
387.236344	0.995095
387.620770	0.994656
388.005133	0.995916
388.389435	0.996474
388.773674	0.995329
389.157851	0.996326
389.541965	0.995708
389.926018	0.996499
390.310008	0.997261
390.693936	0.995814
391.077802	0.996038
391.461606	0.995503
391.845348	0.995609
392.229027	0.997463
392.612645	0.995456
392.996200	0.996491
393.379694	0.995180
393.763125	0.996772
394.146494	0.995873
394.529801	0.994580
394.913047	0.996636
395.296230	0.996159
395.679351	0.995302
396.062410	0.995065
396.445408	0.996440
396.828343	0.995916
397.211217	0.996647
397.594028	0.995793
397.976778	0.995255
398.359466	0.996531
398.742092	0.996418
399.124656	0.995373
399.507158	0.996754
399.889598	0.996504
400.271977	0.996068
400.654294	0.996636
401.036549	0.997328
401.418742	0.997044
401.800874	0.995753
402.182944	0.995787
402.564952	0.995406
402.946898	0.996972
403.328783	0.995700
403.710606	0.995866
404.092367	0.995872
404.474067	0.996157
404.855705	0.996070
405.237282	0.996331
405.618797	0.995110
406.000250	0.995796
406.381642	0.996529
406.762972	0.995569
407.144240	0.997205
407.525447	0.996463
407.906593	0.996111
408.287677	0.995612
408.668700	0.996850
409.049661	0.994726
409.430560	0.995250
409.811399	0.995908
410.192176	0.995029
410.572891	0.995155
410.953545	0.995753
411.334138	0.994984
411.714669	0.995157
412.095139	0.995342
412.475547	0.996114
412.855894	0.995302
413.236180	0.995970
413.616405	0.995399
413.996568	0.995719
414.376670	0.994756
414.756711	0.995145
415.136691	0.994579
415.516609	0.995186
415.896466	0.994756
416.276262	0.994117
416.655997	0.995470
417.035670	0.994751
417.415283	0.994196
417.794834	0.993798
418.174324	0.994209
418.553753	0.993826
418.933121	0.992874
419.312428	0.993114
419.691674	0.992654
420.070859	0.992100
420.449983	0.990187
420.829045	0.990085
421.208047	0.989340
421.586988	0.989209
421.965867	0.986481
422.344686	0.985924
422.723444	0.984537
423.102141	0.982700
423.480777	0.981548
423.859352	0.979208
424.237866	0.976449
424.616319	0.973819
424.994712	0.972649
425.373044	0.970634
425.751314	0.967142
426.129524	0.965145
426.507673	0.961917
426.885762	0.958923
427.263789	0.955858
427.641756	0.952859
428.019662	0.948966
428.397508	0.944898
428.775292	0.940312
429.153016	0.936119
429.530679	0.934128
429.908282	0.928446
430.285824	0.925141
430.663305	0.916479
431.040726	0.915463
431.418086	0.910877
431.795385	0.903676
432.172624	0.897584
432.549802	0.892840
432.926920	0.886800
433.303977	0.879409
433.680974	0.873338
434.057910	0.866674
434.434786	0.860555
434.811601	0.852929
435.188355	0.841196
435.565050	0.838030
435.941683	0.830393
436.318257	0.818422
436.694770	0.809726
437.071222	0.802153
437.447614	0.794908
437.823946	0.790739
438.200218	0.778646
438.576429	0.773435
438.952580	0.761946
439.328670	0.752835
439.704700	0.747402
440.080670	0.740607
440.456580	0.720968
440.832429	0.716196
441.208218	0.714306
441.583947	0.700180
441.959616	0.691096
442.335224	0.685322
442.710773	0.672465
443.086261	0.661600
443.461689	0.662168
443.837057	0.647027
444.212365	0.632815
444.587612	0.629598
444.962800	0.614856
445.337927	0.608149
445.712995	0.617455
446.088002	0.584384
446.462949	0.583449
446.837837	0.578767
447.212664	0.564833
447.587431	0.550533
447.962139	0.521723
448.336786	0.484643
448.711374	0.486258
449.085901	0.511731
449.460369	0.506965
449.834776	0.503734
450.209124	0.480990
450.583412	0.468092
450.957640	0.457954
451.331808	0.460789
451.705917	0.474732
452.079965	0.473004
452.453954	0.457422
452.827883	0.458772
453.201752	0.449708
453.575562	0.455697
453.949311	0.440320
454.323001	0.442339
454.696632	0.434378
455.070202	0.423674
455.443713	0.412624
455.817164	0.405031
456.190556	0.397341
456.563888	0.390818
456.937160	0.385983
457.310373	0.398425
457.683526	0.394779
458.056619	0.397643
458.429653	0.395818
458.802628	0.396718
459.175542	0.389249
459.548398	0.370886
459.921194	0.362337
460.293930	0.360943
460.666607	0.337833
461.039224	0.324814
461.411782	0.319318
461.784280	0.317016
462.156719	0.319433
462.529099	0.322398
462.901419	0.336914
463.273680	0.340003
463.645882	0.338877
464.018024	0.344270
464.390106	0.336319
464.762130	0.320407
465.134094	0.303481
465.505999	0.272638
465.877845	0.243024
466.249631	0.229548
466.621358	0.236625
466.993026	0.249511
467.364634	0.255271
467.736184	0.263861
468.107674	0.271853
468.479105	0.271078
468.850477	0.277434
469.221790	0.284242
469.593043	0.294090
469.964238	0.298935
470.335373	0.297846
470.706449	0.295755
471.077467	0.296441
471.448425	0.258764
471.819324	0.234447
472.190164	0.233641
472.560945	0.262172
472.931667	0.284297
473.302330	0.288496
473.672934	0.300195
474.043479	0.288229
474.413965	0.289917
474.784393	0.293356
475.154761	0.288266
475.525070	0.285598
475.895321	0.291269
476.265513	0.285261
476.635645	0.280544
477.005719	0.280353
477.375734	0.277149
477.745691	0.270755
478.115588	0.266994
478.485427	0.260496
478.855207	0.247362
479.224928	0.230066
479.594591	0.217937
479.964194	0.221411
480.333739	0.222826
480.703226	0.224257
481.072653	0.222672
481.442022	0.218242
481.811333	0.214718
482.180584	0.218324
482.549777	0.223684
482.918912	0.226946
483.287988	0.226597
483.657005	0.226102
484.025964	0.232600
484.394864	0.229947
484.763706	0.230480
485.132489	0.235380
485.501213	0.235981
485.869879	0.234366
486.238487	0.237936
486.607036	0.235632
486.975527	0.239922
487.343959	0.236066
487.712333	0.234949
488.080648	0.236531
488.448905	0.235698
488.817104	0.236874
489.185244	0.231648
489.553326	0.228568
489.921350	0.218190
490.289315	0.200990
490.657222	0.195789
491.025070	0.197092
491.392861	0.199210
491.760593	0.204766
492.128267	0.210365
492.495883	0.215974
492.863440	0.222057
493.230939	0.228332
493.598380	0.229698
493.965763	0.231544
494.333088	0.233871
494.700354	0.235436
495.067563	0.234435
495.434713	0.237377
495.801805	0.235419
496.168839	0.236982
496.535815	0.238137
496.902733	0.238248
497.269593	0.240025
497.636395	0.237685
498.003139	0.237952
498.369825	0.240923
498.736453	0.237315
499.103023	0.238896
499.469535	0.238105
499.835989	0.238307
500.202385	0.239249
500.568723	0.242741
500.935003	0.237811
501.301226	0.241847
501.667390	0.236201
502.033497	0.234316
502.399546	0.237136
502.765537	0.238992
503.131470	0.237466
503.497345	0.233849
503.863163	0.242517
504.228923	0.235388
504.594625	0.234352
504.960269	0.239625
505.325856	0.234780
505.691385	0.239180
506.056856	0.235987
506.422270	0.235336
506.787625	0.237893
507.152924	0.235160
507.518164	0.235794
507.883347	0.237267
508.248472	0.239259
508.613540	0.233956
508.978550	0.236637
509.343503	0.236741
509.708398	0.234714
510.073236	0.232317
510.438016	0.232137
510.802738	0.233358
511.167403	0.232087
511.532010	0.234076
511.896561	0.229766
512.261053	0.228471
512.625488	0.230604
512.989866	0.230846
513.354186	0.231215
513.718449	0.233182
514.082655	0.229435
514.446803	0.231581
514.810894	0.229215
515.174927	0.232102
515.538904	0.231390
515.902822	0.228094
516.266684	0.230723
516.630488	0.231799
516.994235	0.230421
517.357925	0.229515
517.721558	0.227834
518.085133	0.227312
518.448651	0.227584
518.812112	0.229343
519.175516	0.229047
519.538863	0.226881
519.902152	0.228472
520.265385	0.225155
520.628560	0.226825
520.991678	0.227192
521.354739	0.226328
521.717743	0.227725
522.080690	0.228009
522.443580	0.225267
522.806413	0.226250
523.169189	0.225332
523.531908	0.224431
523.894569	0.228063
524.257174	0.228145
524.619722	0.225765
524.982213	0.226902
525.344647	0.225817
525.707025	0.226630
526.069345	0.224642
526.431608	0.226365
526.793815	0.224509
527.155964	0.228368
527.518057	0.227646
527.880093	0.228650
528.242072	0.227129
528.603995	0.229118
528.965860	0.230789
529.327669	0.229493
529.689421	0.230509
530.051117	0.231173
530.412755	0.228686
530.774337	0.231312
531.135862	0.231702
531.497331	0.230714
531.858743	0.233538
532.220098	0.230637
532.581396	0.232859
532.942638	0.233776
533.303824	0.234696
533.664953	0.234246
534.026025	0.236298
534.387040	0.233951
534.747999	0.234159
535.108902	0.232769
535.469748	0.237867
535.830537	0.235727
536.191270	0.236144
536.551947	0.235622
536.912567	0.235902
537.273131	0.237516
537.633638	0.237470
537.994089	0.238021
538.354483	0.238859
538.714821	0.236063
539.075103	0.235852
539.435328	0.236472
539.795497	0.240053
540.155609	0.236784
540.515665	0.234953
540.875665	0.240579
541.235609	0.239307
541.595496	0.239373
541.955328	0.235768
542.315102	0.238773
542.674821	0.239611
543.034483	0.239252
543.394090	0.239289
543.753640	0.240918
544.113134	0.236140
544.472571	0.239591
544.831953	0.236147
545.191278	0.240440
545.550548	0.239910
545.909761	0.236682
546.268918	0.237532
546.628019	0.235714
546.987064	0.238543
547.346053	0.240253
547.704986	0.237857
548.063863	0.238342
548.422684	0.238705
548.781449	0.240340
549.140158	0.238047
549.498811	0.240852
549.857408	0.244050
550.215949	0.238880
550.574434	0.241934
550.932864	0.239978
551.291237	0.238496
551.649555	0.239789
552.007817	0.239619
552.366022	0.240236
552.724173	0.240815
553.082267	0.240939
553.440305	0.237902
553.798288	0.242357
554.156215	0.238989
554.514086	0.239765
554.871902	0.242854
555.229661	0.242131
555.587365	0.242425
555.945014	0.245149
556.302606	0.241993
556.660143	0.244611
557.017625	0.240969
557.375050	0.243183
557.732421	0.240150
558.089735	0.242171
558.446994	0.242394
558.804197	0.241329
559.161345	0.241573
559.518437	0.245258
559.875474	0.242691
560.232455	0.242157
560.589381	0.243509
560.946251	0.243443
561.303065	0.240949
561.659825	0.242404
562.016528	0.243862
562.373177	0.246985
562.729770	0.243917
563.086307	0.245935
563.442789	0.243961
563.799216	0.246745
564.155587	0.245381
564.511904	0.246503
564.868164	0.246686
565.224370	0.246741
565.580520	0.248294
565.936615	0.248148
566.292654	0.251096
566.648638	0.247941
567.004567	0.249316
567.360441	0.249659
567.716260	0.251731
568.072023	0.249707
568.427732	0.250261
568.783385	0.252508
569.138982	0.250558
569.494525	0.250415
569.850013	0.253336
570.205445	0.251695
570.560823	0.254051
570.916145	0.256199
571.271412	0.254628
571.626625	0.255784
571.981782	0.256122
572.336884	0.257177
572.691931	0.256964
573.046923	0.257888
573.401860	0.259688
573.756743	0.261094
574.111570	0.260099
574.466342	0.260230
574.821059	0.259824
575.175722	0.262398
575.530330	0.261984
575.884882	0.262164
576.239380	0.264599
576.593823	0.264908
576.948211	0.264520
577.302544	0.267846
577.656823	0.267177
578.011047	0.267347
578.365216	0.267913
578.719330	0.270415
579.073389	0.269760
579.427394	0.271029
579.781344	0.271906
580.135239	0.273336
580.489080	0.273224
580.842866	0.276096
581.196597	0.276182
581.550273	0.274576
581.903895	0.275495
582.257463	0.273719
582.610975	0.277104
582.964434	0.276548
583.317837	0.278788
583.671186	0.279489
584.024481	0.279226
584.377721	0.281755
584.730906	0.282712
585.084037	0.281553
585.437113	0.283524
585.790135	0.282866
586.143103	0.285805
586.496016	0.287216
586.848874	0.284165
587.201679	0.284823
587.554428	0.288305
587.907124	0.287267
588.259765	0.287724
588.612352	0.288306
588.964884	0.292300
589.317362	0.291765
589.669786	0.291559
590.022155	0.290691
590.374470	0.289557
590.726731	0.291547
591.078937	0.296408
591.431090	0.292775
591.783188	0.296918
592.135232	0.297213
592.487222	0.297328
592.839157	0.295117
593.191038	0.297808
593.542866	0.299558
593.894639	0.303178
594.246358	0.301100
594.598022	0.300927
594.949633	0.304517
595.301190	0.304913
595.652692	0.304273
596.004141	0.300520
596.355535	0.308225
596.706876	0.308694
597.058162	0.311347
597.409395	0.308657
597.760573	0.306136
598.111698	0.309658
598.462768	0.309832
598.813785	0.311354
599.164748	0.312308
599.515657	0.312668
599.866511	0.316298
600.217312	0.311365
600.568060	0.316942
600.918753	0.312799
601.269392	0.314007
601.619978	0.317353
601.970510	0.315250
602.320988	0.315310
602.671412	0.312821
603.021783	0.314945
603.372100	0.316676
603.722363	0.316598
604.072572	0.317232
604.422728	0.316861
604.772830	0.319055
605.122878	0.318649
605.472872	0.319169
605.822813	0.317403
606.172701	0.320084
606.522534	0.317344
606.872314	0.317790
607.222041	0.318473
607.571714	0.316784
607.921333	0.317593
608.270899	0.317961
608.620411	0.314416
608.969870	0.318321
609.319276	0.318295
609.668627	0.318263
610.017926	0.317173
610.367171	0.315617
610.716362	0.316403
611.065500	0.316502
611.414585	0.315181
611.763616	0.315727
612.112594	0.316325
612.461518	0.315687
612.810389	0.313577
613.159207	0.315424
613.507971	0.317623
613.856682	0.313169
614.205340	0.314827
614.553945	0.311348
614.902496	0.315202
615.250994	0.313493
615.599439	0.314459
615.947830	0.313744
616.296169	0.314476
616.644454	0.314381
616.992686	0.313973
617.340864	0.311730
617.688990	0.315669
618.037063	0.312231
618.385082	0.313900
618.733048	0.310931
619.080961	0.313158
619.428821	0.312530
619.776628	0.312102
620.124382	0.313958
620.472083	0.314346
620.819731	0.314181
621.167326	0.317575
621.514868	0.317664
621.862357	0.321548
622.209793	0.321480
622.557176	0.323638
622.904506	0.324499
623.251783	0.326817
623.599007	0.329336
623.946179	0.329059
624.293297	0.330541
624.640363	0.334486
624.987376	0.334978
625.334336	0.337519
625.681243	0.339787
626.028097	0.340623
626.374899	0.341928
626.721647	0.341560
627.068343	0.344950
627.414987	0.346065
627.761577	0.348253
628.108115	0.346509
628.454600	0.351769
628.801032	0.348585
629.147412	0.351051
629.493739	0.351181
629.840014	0.354424
630.186236	0.352141
630.532405	0.357615
630.878521	0.355262
631.224585	0.357163
631.570597	0.360723
631.916556	0.358970
632.262462	0.359118
632.608316	0.361267
632.954117	0.361939
633.299866	0.363027
633.645562	0.363670
633.991206	0.368162
634.336797	0.370819
634.682336	0.372745
635.027823	0.374538
635.373257	0.375187
635.718639	0.378868
636.063968	0.377817
636.409245	0.383784
636.754470	0.384161
637.099642	0.386313
637.444762	0.389963
637.789829	0.388691
638.134845	0.392242
638.479808	0.393317
638.824719	0.392961
639.169577	0.397116
639.514383	0.395875
639.859137	0.400428
640.203839	0.400233
640.548489	0.400973
640.893086	0.402043
641.237632	0.403762
641.582125	0.402428
641.926566	0.403324
642.270955	0.403783
642.615292	0.404460
642.959576	0.402864
643.303809	0.404197
643.647990	0.403359
643.992118	0.403872
644.336195	0.407318
644.680219	0.405720
645.024192	0.406398
645.368112	0.400307
645.711981	0.398900
646.055797	0.394230
646.399562	0.396789
646.743274	0.388622
647.086935	0.386405
647.430544	0.386502
647.774101	0.385432
648.117606	0.385081
648.461059	0.385563
648.804460	0.387967
649.147810	0.392896
649.491108	0.394803
649.834354	0.396485
650.177548	0.401782
650.520690	0.407338
650.863781	0.408398
651.206820	0.407120
651.549807	0.412438
651.892742	0.415878
652.235626	0.415467
652.578458	0.416664
652.921238	0.423048
653.263967	0.420037
653.606644	0.424923
653.949269	0.423982
654.291843	0.427896
654.634365	0.425167
654.976836	0.427793
655.319255	0.428018
655.661622	0.429840
656.003938	0.429667
656.346203	0.433007
656.688416	0.430551
657.030577	0.433923
657.372687	0.435900
657.714746	0.436662
658.056753	0.433593
658.398708	0.437344
658.740612	0.438504
659.082465	0.434794
659.424266	0.435146
659.766016	0.434806
660.107715	0.437353
660.449362	0.436542
660.790958	0.436977
661.132503	0.437619
661.473996	0.435348
661.815438	0.436146
662.156829	0.436137
662.498168	0.437142
662.839456	0.438329
663.180693	0.435971
663.521879	0.435734
663.863013	0.436818
664.204097	0.436106
664.545129	0.432852
664.886110	0.432582
665.227040	0.430116
665.567918	0.432879
665.908746	0.430847
666.249522	0.430365
666.590248	0.431633
666.930922	0.429690
667.271545	0.428927
667.612118	0.428692
667.952639	0.430107
668.293109	0.428298
668.633528	0.431736
668.973896	0.431407
669.314213	0.431933
669.654480	0.433322
669.994695	0.433997
670.334859	0.434690
670.674973	0.434961
671.015035	0.435167
671.355047	0.434747
671.695008	0.435896
672.034918	0.437902
672.374777	0.437317
672.714585	0.438459
673.054342	0.438252
673.394049	0.438708
673.733705	0.436341
674.073310	0.436901
674.412864	0.440811
674.752368	0.440834
675.091820	0.441097
675.431223	0.445511
675.770574	0.445032
676.109875	0.448113
676.449125	0.448614
676.788324	0.450587
677.127473	0.455814
677.466571	0.455381
677.805619	0.457333
678.144616	0.458192
678.483562	0.459787
678.822458	0.462988
679.161303	0.463677
679.500098	0.464103
679.838842	0.466122
680.177535	0.465187
680.516179	0.464073
680.854771	0.463442
681.193314	0.456200
681.531805	0.447916
681.870247	0.436298
682.208638	0.428670
682.546978	0.427704
682.885268	0.429450
683.223508	0.435255
683.561697	0.439111
683.899836	0.442178
684.237925	0.444947
684.575963	0.447876
684.913951	0.451091
685.251889	0.446989
685.589776	0.449026
685.927614	0.451111
686.265401	0.445219
686.603137	0.446485
686.940824	0.440679
687.278460	0.439248
687.616046	0.438350
687.953582	0.433339
688.291068	0.434856
688.628504	0.430098
688.965889	0.432779
689.303224	0.436791
689.640510	0.441031
689.977745	0.446517
690.314930	0.454343
690.652065	0.458637
690.989150	0.466267
691.326185	0.472688
691.663170	0.477185
692.000105	0.484547
692.336990	0.491448
692.673825	0.493886
693.010610	0.500751
693.347345	0.506470
693.684030	0.507897
694.020665	0.512546
694.357251	0.521259
694.693786	0.521394
695.030272	0.525597
695.366707	0.528631
695.703093	0.532377
696.039429	0.529612
696.375716	0.531947
696.711952	0.534089
697.048139	0.536284
697.384276	0.538028
697.720363	0.536189
698.056400	0.535949
698.392388	0.541049
698.728326	0.544143
699.064214	0.547134
699.400053	0.547426
699.735842	0.550790
700.071581	0.553758
700.407270	0.556824
700.742910	0.559016
701.078501	0.566748
701.414042	0.565996
701.749533	0.569843
702.084974	0.577488
702.420366	0.570485
702.755709	0.577499
703.091002	0.585774
703.426246	0.579466
703.761440	0.585025
704.096584	0.590923
704.431679	0.586443
704.766725	0.588969
705.101721	0.590698
705.436668	0.586541
705.771565	0.593333
706.106413	0.590928
706.441212	0.586261
706.775961	0.584187
707.110661	0.587279
707.445311	0.582934
707.779913	0.581469
708.114465	0.579772
708.448967	0.576544
708.783421	0.568324
709.117825	0.562956
709.452180	0.562900
709.786485	0.556777
710.120742	0.546734
710.454949	0.548436
710.789107	0.540735
711.123216	0.531846
711.457275	0.532661
711.791286	0.524213
712.125247	0.523330
712.459159	0.534227
712.793023	0.526967
713.126837	0.530311
713.460602	0.531598
713.794318	0.540921
714.127985	0.539596
714.461602	0.549401
714.795171	0.552331
715.128691	0.560853
715.462162	0.567347
715.795584	0.573545
716.128957	0.575893
716.462281	0.582447
716.795556	0.586425
717.128782	0.591165
717.461960	0.601288
717.795088	0.598867
718.128167	0.605983
718.461198	0.614541
718.794180	0.615109
719.127113	0.617724
719.459997	0.621864
719.792833	0.627890
720.125619	0.628717
720.458357	0.634467
720.791046	0.634259
721.123686	0.637760
721.456278	0.644715
721.788821	0.642072
722.121315	0.645739
722.453761	0.651067
722.786158	0.647973
723.118506	0.644269
723.450805	0.652834
723.783056	0.648229
724.115259	0.646099
724.447412	0.645764
724.779518	0.647026
725.111574	0.645343
725.443582	0.641779
725.775542	0.643767
726.107453	0.635957
726.439315	0.635052
726.771129	0.633879
727.102895	0.626335
727.434612	0.619865
727.766281	0.617606
728.097901	0.617489
728.429473	0.617266
728.760996	0.615469
729.092471	0.615162
729.423897	0.619725
729.755276	0.619024
730.086606	0.617912
730.417887	0.613019
730.749120	0.603935
731.080305	0.593968
731.411442	0.590703
731.742530	0.595324
732.073570	0.594614
732.404562	0.587050
732.735506	0.588681
733.066401	0.593564
733.397249	0.602821
733.728048	0.613713
734.058798	0.626539
734.389501	0.637040
734.720156	0.646547
735.050762	0.654764
735.381320	0.656077
735.711831	0.664778
736.042293	0.668848
736.372707	0.665656
736.703073	0.670794
737.033391	0.672583
737.363661	0.669328
737.693883	0.664415
738.024056	0.663838
738.354182	0.664555
738.684260	0.652903
739.014290	0.648828
739.344272	0.650193
739.674207	0.643302
740.004093	0.641899
740.333931	0.643205
740.663722	0.643423
740.993464	0.643492
741.323159	0.647504
741.652806	0.653239
741.982405	0.657627
742.311956	0.662690
742.641460	0.664407
742.970915	0.667444
743.300323	0.675881
743.629683	0.681825
743.958996	0.683427
744.288260	0.688168
744.617477	0.694045
744.946647	0.695976
745.275768	0.701112
745.604842	0.699706
745.933869	0.711306
746.262847	0.711626
746.591778	0.705666
746.920662	0.711439
747.249498	0.717875
747.578286	0.708708
747.907027	0.704603
748.235720	0.706206
748.564365	0.700083
748.892963	0.699330
749.221514	0.703562
749.550017	0.708213
749.878473	0.708316
750.206881	0.714950
750.535242	0.714954
750.863555	0.715660
751.191821	0.716357
751.520039	0.720292
751.848210	0.724624
752.176334	0.717223
752.504411	0.715793
752.832440	0.724648
753.160421	0.728106
753.488356	0.726052
753.816243	0.724529
754.144082	0.731842
754.471875	0.735911
754.799620	0.732152
755.127318	0.732703
755.454969	0.733021
755.782572	0.731754
756.110129	0.736842
756.437638	0.738808
756.765100	0.736050
757.092515	0.734827
757.419882	0.732877
757.747203	0.738571
758.074477	0.738075
758.401703	0.734963
758.728882	0.730164
759.056014	0.729374
759.383099	0.727854
759.710138	0.728863
760.037129	0.724637
760.364073	0.719382
760.690970	0.721855
761.017820	0.728203
761.344623	0.723119
761.671379	0.714265
761.998088	0.702676
762.324751	0.678763
762.651366	0.638350
762.977935	0.571047
763.304456	0.519733
763.630931	0.509749
763.957359	0.548720
764.283740	0.593218
764.610074	0.620665
764.936362	0.651816
765.262602	0.678268
765.588796	0.699237
765.914943	0.718029
766.241044	0.734866
766.567097	0.741611
766.893104	0.751386
767.219064	0.758293
767.544978	0.764741
767.870845	0.777876
768.196665	0.781293
768.522438	0.779679
768.848165	0.780486
769.173846	0.789525
769.499479	0.794224
769.825066	0.797337
770.150607	0.802756
770.476101	0.797820
770.801548	0.798907
771.126949	0.810082
771.452303	0.814175
771.777611	0.813655
772.102872	0.812667
772.428087	0.817944
772.753256	0.821137
773.078378	0.822957
773.403453	0.831845
773.728482	0.836929
774.053465	0.829959
774.378401	0.833155
774.703291	0.842273
775.028135	0.841104
775.352932	0.843142
775.677683	0.846229
776.002388	0.846636
776.327046	0.845742
776.651658	0.848828
776.976224	0.852441
777.300743	0.852973
777.625216	0.855227
777.949643	0.857022
778.274024	0.856623
778.598359	0.858125
778.922647	0.857908
779.246889	0.856966
779.571086	0.861186
779.895236	0.864117
780.219339	0.860504
780.543397	0.859345
780.867409	0.856209
781.191374	0.857880
781.515294	0.860966
781.839167	0.859383
782.162995	0.862306
782.486776	0.858999
782.810511	0.860089
783.134201	0.863712
783.457844	0.862006
783.781441	0.863891
784.104993	0.870582
784.428498	0.870007
784.751958	0.866612
785.075372	0.868491
785.398739	0.872928
785.722061	0.868852
786.045337	0.864081
786.368568	0.869343
786.691752	0.872301
787.014891	0.856616
787.337983	0.848420
787.661030	0.841827
787.984031	0.823117
788.306987	0.811017
788.629897	0.812991
788.952760	0.816813
789.275579	0.821385
789.598351	0.837005
789.921078	0.850123
790.243759	0.852138
790.566395	0.856128
790.888984	0.864196
791.211529	0.868712
791.534027	0.871315
791.856480	0.874358
792.178888	0.879050
792.501249	0.882082
792.823566	0.882280
793.145836	0.882152
793.468062	0.886251
793.790241	0.884758
794.112375	0.882953
794.434464	0.878463
794.756507	0.877684
795.078505	0.877578
795.400457	0.872470
795.722364	0.859891
796.044226	0.852746
796.366042	0.852597
796.687812	0.855743
797.009538	0.851756
797.331218	0.853755
797.652852	0.859701
797.974442	0.864320
798.295986	0.863860
798.617484	0.867794
798.938938	0.870855
799.260346	0.875781
799.581709	0.878308
799.903026	0.880488
800.224299	0.880626
800.545526	0.884218
800.866708	0.888277
801.187845	0.891904
801.508936	0.891958
801.829983	0.889441
802.150984	0.892899
802.471940	0.897680
802.792851	0.896609
803.113717	0.898228
803.434538	0.895990
803.755314	0.898148
804.076045	0.899840
804.396731	0.900310
804.717372	0.899714
805.037967	0.902497
805.358518	0.899459
805.679024	0.896407
805.999485	0.896859
806.319901	0.896859
806.640272	0.898024
806.960598	0.896380
807.280879	0.892965
807.601115	0.892050
807.921306	0.895648
808.241453	0.896734
808.561554	0.893631
808.881611	0.893669
809.201623	0.896270
809.521590	0.895514
809.841513	0.896494
810.161390	0.897002
810.481223	0.897330
810.801011	0.901272
811.120755	0.903371
811.440453	0.901815
811.760107	0.900052
812.079716	0.899650
812.399281	0.904334
812.718801	0.906703
813.038276	0.907682
813.357707	0.906801
813.677093	0.904902
813.996434	0.907189
814.315731	0.908848
814.634983	0.910795
814.954191	0.907541
815.273354	0.905647
815.592473	0.901081
815.911547	0.901496
816.230577	0.898760
816.549562	0.895803
816.868502	0.896386
817.187399	0.893851
817.506250	0.887511
817.825058	0.890304
818.143821	0.886133
818.462539	0.881950
818.781213	0.873035
819.099843	0.861275
819.418429	0.845975
819.736970	0.829833
820.055466	0.810142
820.373919	0.784751
820.692327	0.752080
821.010691	0.717229
821.329011	0.641028
821.647286	0.525368
821.965517	0.411444
822.283704	0.368872
822.601847	0.370654
822.919945	0.405969
823.237999	0.439126
823.556010	0.486076
823.873976	0.542240
824.191897	0.592299
824.509775	0.634659
824.827609	0.679143
825.145398	0.702530
825.463144	0.705964
825.780845	0.687691
826.098502	0.669440
826.416116	0.623926
826.733685	0.579838
827.051210	0.571472
827.368692	0.585325
827.686129	0.622604
828.003522	0.675779
828.320872	0.724002
828.638177	0.766604
828.955439	0.800031
829.272656	0.820849
829.589830	0.839747
829.906960	0.854620
830.224046	0.866705
830.541088	0.877145
830.858086	0.881746
831.175041	0.887729
831.491952	0.886964
831.808819	0.884423
832.125642	0.877433
832.442421	0.862858
832.759157	0.840467
833.075849	0.794025
833.392497	0.731329
833.709101	0.689960
834.025662	0.699958
834.342179	0.731611
834.658653	0.769779
834.975083	0.805951
835.291469	0.831790
835.607811	0.854914
835.924110	0.871292
836.240366	0.887836
836.556578	0.902046
836.872746	0.907621
837.188871	0.914472
837.504952	0.920738
837.820990	0.923233
838.136984	0.927524
838.452935	0.930386
838.768842	0.930975
839.084706	0.924316
839.400526	0.898869
839.716303	0.859618
840.032037	0.837013
840.347727	0.840501
840.663373	0.857682
840.978977	0.880188
841.294537	0.902359
841.610054	0.918667
841.925527	0.925727
842.240957	0.932683
842.556344	0.939707
842.871687	0.945799
843.186987	0.949918
843.502244	0.950888
843.817458	0.952056
844.132629	0.955480
844.447756	0.959744
844.762840	0.960555
845.077881	0.959921
845.392879	0.960101
845.707833	0.961960
846.022745	0.964995
846.337613	0.965034
846.652438	0.966430
846.967221	0.964501
847.281960	0.965981
847.596656	0.966284
847.911309	0.966130
848.225919	0.967671
848.540485	0.969393
848.855009	0.969290
849.169490	0.968602
849.483928	0.968519
849.798323	0.969149
850.112675	0.969006
850.426984	0.968860
850.741251	0.969783
851.055474	0.971293
851.369654	0.967904
851.683792	0.969129
851.997887	0.969743
852.311938	0.970712
852.625947	0.969989
852.939914	0.968246
853.253837	0.969735
853.567718	0.970124
853.881555	0.971287
854.195350	0.968938
854.509103	0.970442
854.822812	0.969937
855.136479	0.970221
855.450103	0.969494
855.763685	0.968478
856.077224	0.968405
856.390720	0.969992
856.704173	0.970742
857.017584	0.967715
857.330953	0.968292
857.644278	0.966819
857.957561	0.968472
858.270802	0.967585
858.584000	0.968289
858.897155	0.966640
859.210268	0.967134
859.523339	0.967665
859.836367	0.970269
860.149352	0.971077
860.462295	0.968890
860.775195	0.970066
861.088054	0.968935
861.400869	0.968517
861.713642	0.970608
862.026373	0.970357
862.339062	0.970188
862.651708	0.967393
862.964312	0.967239
863.276873	0.969225
863.589392	0.968719
863.901869	0.966487
864.214303	0.965623
864.526696	0.963475
864.839045	0.964551
865.151353	0.961805
865.463619	0.962764
865.775842	0.962922
866.088023	0.961569
866.400162	0.962476
866.712258	0.963209
867.024313	0.963162
867.336325	0.963197
867.648296	0.963280
867.960224	0.962014
868.272110	0.962011
868.583954	0.964152
868.895755	0.963109
869.207515	0.961791
869.519233	0.958831
869.830909	0.961493
870.142542	0.963652
870.454134	0.961783
870.765684	0.960226
871.077191	0.957400
871.388657	0.959801
871.700081	0.958417
872.011463	0.959125
872.322803	0.958723
872.634101	0.955844
872.945357	0.954219
873.256571	0.953582
873.567744	0.953053
873.878874	0.953102
874.189963	0.952479
874.501010	0.951065
874.812015	0.948713
875.122979	0.951208
875.433900	0.953023
875.744780	0.955184
876.055618	0.951575
876.366415	0.950032
876.677169	0.950277
876.987882	0.951405
877.298554	0.952115
877.609183	0.947810
877.919771	0.945091
878.230317	0.943040
878.540822	0.940902
878.851285	0.935148
879.161707	0.927209
879.472087	0.915625
879.782425	0.899005
880.092722	0.865199
880.402977	0.813926
880.713191	0.753468
881.023363	0.694631
881.333494	0.661052
881.643583	0.632821
881.953631	0.632165
882.263637	0.661079
882.573602	0.700421
882.883526	0.725954
883.193408	0.750441
883.503248	0.772430
883.813048	0.799586
884.122806	0.828734
884.432522	0.850407
884.742197	0.871071
885.051831	0.881884
885.361424	0.892139
885.670975	0.903339
885.980485	0.913712
886.289954	0.920056
886.599382	0.926153
886.908768	0.928658
887.218113	0.934809
887.527417	0.939810
887.836680	0.941543
888.145901	0.943757
888.455082	0.947000
888.764221	0.950301
889.073319	0.952487
889.382376	0.952868
889.691392	0.953175
890.000366	0.953278
890.309300	0.954364
890.618193	0.953259
890.927044	0.951769
891.235855	0.952099
891.544625	0.952565
891.853353	0.952630
892.162041	0.949151
892.470687	0.942405
892.779293	0.938347
893.087858	0.934180
893.396381	0.927096
893.704864	0.913038
894.013306	0.889266
894.321707	0.863869
894.630068	0.848713
894.938387	0.843898
895.246665	0.845800
895.554903	0.857360
895.863100	0.871187
896.171256	0.888077
896.479371	0.907599
896.787446	0.920851
897.095480	0.925173
897.403473	0.930002
897.711425	0.932727
898.019336	0.941236
898.327207	0.942776
898.635038	0.945394
898.942827	0.944850
899.250576	0.948974
899.558284	0.952430
899.865952	0.953072
900.173579	0.955447
900.481165	0.955358
900.788711	0.960499
901.096216	0.961419
901.403681	0.962641
901.711105	0.962915
902.018489	0.963764
902.325832	0.962567
902.633135	0.962129
902.940397	0.955970
903.247619	0.943786
903.554800	0.919366
903.861941	0.879344
904.169041	0.844935
904.476101	0.826691
904.783121	0.828222
905.090100	0.844783
905.397039	0.865067
905.703938	0.886521
906.010796	0.906565
906.317614	0.922757
906.624391	0.935061
906.931129	0.943961
907.237826	0.952746
907.544483	0.958927
907.851099	0.963799
908.157675	0.967179
908.464211	0.970048
908.770707	0.972294
909.077163	0.974268
909.383578	0.975039
909.689954	0.974528
909.996289	0.975236
910.302584	0.977667
910.608839	0.978634
910.915054	0.978488
911.221229	0.978554
911.527363	0.977632
911.833458	0.978210
912.139513	0.976147
912.445527	0.975830
912.751502	0.973663
913.057436	0.972593
913.363331	0.969995
913.669186	0.967553
913.975000	0.961477
914.280775	0.955388
914.586510	0.949572
914.892205	0.935500
915.197859	0.915977
915.503475	0.887835
915.809050	0.868060
916.114585	0.863935
916.420081	0.860114
916.725536	0.856565
917.030952	0.865141
917.336328	0.877081
917.641665	0.893878
917.946961	0.907996
918.252218	0.918946
918.557435	0.929509
918.862612	0.936350
919.167750	0.941884
919.472848	0.948347
919.777906	0.953003
920.082925	0.958901
920.387904	0.962142
920.692843	0.963893
920.997743	0.964389
921.302603	0.967439
921.607423	0.969143
921.912204	0.972109
922.216946	0.972015
922.521647	0.973513
922.826310	0.975231
923.130932	0.977170
923.435516	0.978658
923.740059	0.980516
924.044564	0.978061
924.349028	0.980693
924.653454	0.983327
924.957840	0.985261
925.262186	0.984684
925.566493	0.983427
925.870761	0.984832
926.174989	0.986045
926.479178	0.987459
926.783328	0.988217
927.087438	0.988338
927.391509	0.987297
927.695541	0.989920
927.999533	0.989525
928.303486	0.989269
928.607400	0.991804
928.911275	0.989427
929.215110	0.990669
929.518906	0.991444
929.822663	0.989593
930.126381	0.991141
930.430060	0.990458
930.733699	0.991364
931.037299	0.989167
931.340861	0.990441
931.644383	0.989214
931.947866	0.988324
932.251309	0.990607
932.554714	0.990524
932.858080	0.991322
933.161407	0.990068
933.464694	0.990588
933.767943	0.989682
934.071153	0.990760
934.374323	0.991413
934.677455	0.990822
934.980548	0.993197
935.283602	0.990327
935.586617	0.990847
935.889593	0.990884
936.192530	0.991198
936.495428	0.990893
936.798287	0.991138
937.101108	0.990427
937.403890	0.988652
937.706632	0.989278
938.009336	0.987171
938.312002	0.986086
938.614628	0.984030
938.917216	0.983640
939.219765	0.981717
939.522275	0.983636
939.824747	0.983124
940.127179	0.983206
940.429573	0.984298
940.731929	0.984892
941.034246	0.983463
941.336524	0.986634
941.638763	0.985566
941.940964	0.986144
942.243126	0.986463
942.545250	0.985814
942.847335	0.988251
943.149381	0.988411
943.451389	0.988626
943.753359	0.988023
944.055290	0.990870
944.357182	0.989940
944.659036	0.988439
944.960851	0.989793
945.262628	0.989935
945.564367	0.990224
945.866067	0.990468
946.167729	0.990723
946.469352	0.989744
946.770937	0.988515
947.072484	0.989728
947.373992	0.990023
947.675462	0.990551
947.976893	0.990454
948.278286	0.990073
948.579641	0.992077
948.880958	0.990740
949.182236	0.990201
949.483476	0.991240
949.784678	0.990081
950.085841	0.991376
950.386967	0.990920
950.688054	0.990285
950.989103	0.990290
951.290114	0.988837
951.591087	0.990024
951.892021	0.989094
952.192917	0.989332
952.493776	0.988856
952.794596	0.987319
953.095378	0.987641
953.396122	0.988299
953.696828	0.986737
953.997496	0.990173
954.298126	0.991366
954.598718	0.990649
954.899272	0.991586
955.199788	0.990865
955.500266	0.991218
955.800706	0.993297
956.101108	0.992303
956.401472	0.994474
956.701798	0.994488
957.002087	0.993531
957.302337	0.993601
957.602550	0.994703
957.902724	0.994639
958.202861	0.996044
958.502960	0.994846
958.803022	0.993936
959.103045	0.995727
959.403031	0.996480
959.702979	0.995147
960.002889	0.996837
960.302762	0.995685
960.602596	0.996725
960.902393	0.995466
961.202153	0.996943
961.501875	0.997200
961.801559	0.995722
962.101205	0.996464
962.400814	0.997034
962.700385	0.996067
962.999918	0.997100
963.299414	0.995389
963.598873	0.995380
963.898293	0.997296
964.197677	0.995004
964.497022	0.996335
964.796331	0.997494
965.095601	0.996837
965.394835	0.995933
965.694030	0.996541
965.993189	0.997595
966.292309	0.996515
966.591393	0.997318
966.890439	0.996939
967.189447	0.996642
967.488419	0.998064
967.787353	0.996137
968.086249	0.995173
968.385108	0.997768
968.683930	0.996965
968.982714	0.997118
969.281462	0.996730
969.580172	0.996494
969.878844	0.996653
970.177480	0.996033
970.476078	0.997243
970.774639	0.996118
971.073162	0.997134
971.371649	0.996653
971.670098	0.996369
971.968510	0.997580
972.266885	0.995463
972.565223	0.995914
972.863524	0.995449
973.161788	0.996224
973.460014	0.998008
973.758204	0.995815
974.056356	0.996311
974.354471	0.994683
974.652550	0.995863
974.950591	0.996084
975.248595	0.994602
975.546563	0.996104
975.844493	0.997589
976.142386	0.997465
976.440243	0.996754
976.738062	0.996854
977.035845	0.998750
977.333590	0.996159
977.631299	0.998354
977.928971	0.997607
978.226606	0.997275
978.524204	0.995736
978.821765	0.998695
979.119290	0.996892
979.416777	0.996454
979.714228	0.997711
980.011642	0.995946
980.309020	0.996194
980.606360	0.997183
980.903664	0.998215
981.200931	0.995725
981.498162	0.995256
981.795356	0.995019
982.092513	0.994335
982.389633	0.995578
982.686717	0.991546
982.983764	0.991191
983.280775	0.990498
983.577749	0.990465
983.874686	0.991197
984.171587	0.991388
984.468451	0.993779
984.765279	0.995708
985.062070	0.993613
985.358824	0.995312
985.655543	0.993911
985.952224	0.996531
986.248869	0.996304
986.545478	0.997407
986.842050	0.997955
987.138586	0.996291
987.435086	0.996527
987.731549	0.998314
988.027975	0.997890
988.324366	0.998144
988.620719	0.997478
988.917037	0.996976
989.213318	0.998117
989.509563	0.998004
989.805772	0.998390
990.101944	0.998458
990.398080	0.997459
990.694180	0.997754
990.990244	0.998168
991.286271	0.998214
991.582262	0.998378
991.878217	0.997653
992.174136	0.997928
992.470019	0.998479
992.765865	0.998425
993.061676	0.997569
993.357450	0.997320
993.653188	0.996801
993.948890	0.997429
994.244556	0.997775
994.540186	0.997165
994.835780	0.997058
995.131337	0.997757
995.426859	0.995074
995.722345	0.997582
996.017795	0.996062
996.313208	0.995419
996.608586	0.996315
996.903928	0.996741
997.199234	0.995030
997.494504	0.997106
997.789738	0.996354
998.084936	0.995566
998.380099	0.997210
998.675225	0.998422
998.970316	0.998946
999.265371	0.997741
999.560390	0.997745
999.855373	0.998845
1000.150320	0.998124
1000.445232	0.997906
1000.740108	0.996756
1001.034948	0.998733
1001.329752	0.998918
1001.624521	0.997439
1001.919254	0.997807
1002.213951	0.997837
1002.508613	0.997620
1002.803239	0.999249
1003.097829	0.998802
1003.392384	0.999588
1003.686903	0.998587
1003.981386	0.998675
1004.275834	0.999745
1004.570246	0.996606
1004.864623	0.999293
1005.158964	0.999587
1005.453270	0.998794
1005.747540	0.996672
1006.041775	0.999052
1006.335974	0.999910
1006.630138	0.999155
1006.924266	0.999093
1007.218359	0.999963
1007.512416	0.998957
1007.806438	0.998375
1008.100425	1.000031
1008.394376	0.997669
1008.688292	0.998381
1008.982172	1.001112
1009.276017	0.999477
1009.569827	0.998150
1009.863602	0.997852
1010.157341	0.999496
1010.451045	0.999976
1010.744714	0.999078
1011.038347	0.998058
1011.331945	0.998513
1011.625508	0.998117
1011.919036	0.998150
1012.212528	0.998615
1012.505986	0.998340
1012.799408	0.998816
1013.092795	0.999689
1013.386147	0.999229
1013.679464	0.997973
1013.972745	0.997632
1014.265992	0.998116
1014.559204	0.998276
1014.852380	0.999466
1015.145521	0.999104
1015.438628	0.999263
1015.731699	0.998849
1016.024736	0.998290
1016.317737	0.998955
1016.610703	0.998645
1016.903635	0.999886
1017.196531	0.998799
1017.489393	0.999056
1017.782219	0.998387
1018.075011	0.998675
1018.367768	0.999174
1018.660490	1.000194
1018.953177	1.000194
1019.245829	1.000194
