Dividing Wavelength (nm)	Counts (n)	Blue Motor Position (mm): 0.000000	Red Motor Position (mm): 21.600000	
326.493990	1.001304
326.888308	1.001304
327.282561	1.001304
327.676750	0.998430
328.070874	0.998557
328.464933	0.999669
328.858929	0.999422
329.252859	0.998743
329.646726	0.999801
330.040528	0.999801
330.434265	1.000184
330.827938	0.999908
331.221547	1.000367
331.615091	0.999184
332.008571	0.999391
332.401986	0.998686
332.795338	0.999274
333.188625	0.996573
333.581847	1.000049
333.975006	0.999042
334.368100	0.998922
334.761129	0.999826
335.154095	1.000427
335.546996	0.997358
335.939833	0.993656
336.332606	0.994011
336.725315	0.994345
337.117960	0.994640
337.510540	0.993583
337.903056	0.994976
338.295508	0.993371
338.687896	0.994361
339.080220	0.994269
339.472480	0.994483
339.864676	0.993751
340.256807	0.993479
340.648875	0.994187
341.040879	0.994434
341.432818	0.993836
341.824694	0.993625
342.216506	0.994880
342.608253	0.994188
342.999937	0.994643
343.391557	0.994327
343.783113	0.993589
344.174605	0.994216
344.566033	0.993794
344.957397	0.993920
345.348697	0.992920
345.739934	0.994635
346.131106	0.992181
346.522215	0.994352
346.913260	0.994494
347.304241	0.994063
347.695159	0.993384
348.086012	0.993608
348.476802	0.993485
348.867528	0.993885
349.258191	0.993412
349.648789	0.994283
350.039324	0.993642
350.429796	0.993854
350.820203	0.994290
351.210548	0.993831
351.600828	0.994127
351.991045	0.994154
352.381198	0.992734
352.771288	0.994436
353.161314	0.994233
353.551276	0.994359
353.941175	0.993482
354.331010	0.993406
354.720782	0.994360
355.110490	0.993163
355.500135	0.993677
355.889717	0.993649
356.279235	0.993551
356.668689	0.992973
357.058080	0.993636
357.447408	0.995147
357.836672	0.994599
358.225873	0.993927
358.615010	0.995452
359.004084	0.994199
359.393095	0.994473
359.782043	0.995107
360.170927	0.994534
360.559748	0.995387
360.948505	0.993053
361.337199	0.993902
361.725830	0.995072
362.114398	0.994586
362.502903	0.994531
362.891344	0.994381
363.279722	0.993916
363.668037	0.994743
364.056289	0.994158
364.444478	0.994893
364.832603	0.993620
365.220665	0.992740
365.608665	0.993837
365.996601	0.993428
366.384474	0.994074
366.772284	0.993661
367.160031	0.993103
367.547715	0.992552
367.935336	0.994509
368.322893	0.994135
368.710388	0.993212
369.097820	0.994118
369.485189	0.993355
369.872495	0.993425
370.259738	0.991720
370.646918	0.994434
371.034035	0.994493
371.421090	0.994392
371.808081	0.993753
372.195010	0.995390
372.581875	0.994108
372.968678	0.993932
373.355418	0.993598
373.742096	0.993802
374.128710	0.995743
374.515262	0.993012
374.901751	0.994532
375.288177	0.995054
375.674540	0.995554
376.060841	0.993122
376.447079	0.994422
376.833254	0.994787
377.219367	0.995833
377.605417	0.993657
377.991404	0.994043
378.377329	0.993967
378.763191	0.994674
379.148991	0.995324
379.534727	0.994746
379.920402	0.994904
380.306013	0.994407
380.691563	0.995708
381.077049	0.994420
381.462474	0.994394
381.847835	0.994830
382.233134	0.994336
382.618371	0.994222
383.003545	0.994243
383.388657	0.994333
383.773706	0.996303
384.158693	0.994970
384.543618	0.995289
384.928480	0.994759
385.313280	0.995726
385.698017	0.995764
386.082692	0.996375
386.467305	0.995367
386.851856	0.995391
387.236344	0.994248
387.620770	0.993939
388.005133	0.995088
388.389435	0.995845
388.773674	0.995469
389.157851	0.995665
389.541965	0.994854
389.926018	0.995698
390.310008	0.997417
390.693936	0.996100
391.077802	0.995526
391.461606	0.996063
391.845348	0.995449
392.229027	0.996839
392.612645	0.995845
392.996200	0.996448
393.379694	0.995561
393.763125	0.997603
394.146494	0.996326
394.529801	0.994811
394.913047	0.995899
395.296230	0.995499
395.679351	0.995766
396.062410	0.995868
396.445408	0.995007
396.828343	0.995221
397.211217	0.994889
397.594028	0.996049
397.976778	0.995680
398.359466	0.995860
398.742092	0.994795
399.124656	0.995523
399.507158	0.995412
399.889598	0.995764
400.271977	0.996507
400.654294	0.996653
401.036549	0.995935
401.418742	0.996855
401.800874	0.995079
402.182944	0.995819
402.564952	0.994578
402.946898	0.995761
403.328783	0.995414
403.710606	0.996141
404.092367	0.995726
404.474067	0.995802
404.855705	0.994802
405.237282	0.995859
405.618797	0.995450
406.000250	0.995407
406.381642	0.995451
406.762972	0.995445
407.144240	0.996017
407.525447	0.996374
407.906593	0.995585
408.287677	0.996220
408.668700	0.995608
409.049661	0.994576
409.430560	0.995128
409.811399	0.994886
410.192176	0.995070
410.572891	0.995155
410.953545	0.994464
411.334138	0.994298
411.714669	0.995546
412.095139	0.994355
412.475547	0.995489
412.855894	0.994876
413.236180	0.995317
413.616405	0.995131
413.996568	0.995975
414.376670	0.994387
414.756711	0.994179
415.136691	0.994452
415.516609	0.994207
415.896466	0.993734
416.276262	0.992721
416.655997	0.993147
417.035670	0.991853
417.415283	0.991935
417.794834	0.990849
418.174324	0.989871
418.553753	0.989963
418.933121	0.987676
419.312428	0.985892
419.691674	0.984817
420.070859	0.983960
420.449983	0.982845
420.829045	0.979878
421.208047	0.978763
421.586988	0.977231
421.965867	0.973675
422.344686	0.971160
422.723444	0.969118
423.102141	0.967125
423.480777	0.962810
423.859352	0.960945
424.237866	0.955741
424.616319	0.953302
424.994712	0.948998
425.373044	0.947190
425.751314	0.942023
426.129524	0.938122
426.507673	0.933049
426.885762	0.928779
427.263789	0.923182
427.641756	0.920686
428.019662	0.914394
428.397508	0.908290
428.775292	0.902212
429.153016	0.895933
429.530679	0.892414
429.908282	0.885599
430.285824	0.880683
430.663305	0.869295
431.040726	0.867503
431.418086	0.861760
431.795385	0.852061
432.172624	0.844777
432.549802	0.838512
432.926920	0.830015
433.303977	0.821892
433.680974	0.814822
434.057910	0.804673
434.434786	0.797636
434.811601	0.790615
435.188355	0.775225
435.565050	0.770659
435.941683	0.762872
436.318257	0.747276
436.694770	0.738378
437.071222	0.729355
437.447614	0.722471
437.823946	0.718201
438.200218	0.703496
438.576429	0.700618
438.952580	0.686939
439.328670	0.676733
439.704700	0.672544
440.080670	0.665017
440.456580	0.644031
440.832429	0.639945
441.208218	0.639296
441.583947	0.624067
441.959616	0.616145
442.335224	0.611018
442.710773	0.597912
443.086261	0.587511
443.461689	0.590626
443.837057	0.575380
444.212365	0.560765
444.587612	0.559293
444.962800	0.544402
445.337927	0.538919
445.712995	0.553037
446.088002	0.516144
446.462949	0.519172
446.837837	0.516147
447.212664	0.502335
447.587431	0.488466
447.962139	0.458594
448.336786	0.419166
448.711374	0.423525
449.085901	0.454502
449.460369	0.452645
449.834776	0.451206
450.209124	0.428206
450.583412	0.417153
450.957640	0.407864
451.331808	0.413204
451.705917	0.430490
452.079965	0.430754
452.453954	0.416469
452.827883	0.419740
453.201752	0.412144
453.575562	0.420333
453.949311	0.406030
454.323001	0.409696
454.696632	0.403613
455.070202	0.394284
455.443713	0.384258
455.817164	0.377536
456.190556	0.371769
456.563888	0.366520
456.937160	0.363090
457.310373	0.377971
457.683526	0.375449
458.056619	0.380215
458.429653	0.379375
458.802628	0.381360
459.175542	0.375232
459.548398	0.356863
459.921194	0.349032
460.293930	0.348291
460.666607	0.325679
461.039224	0.313653
461.411782	0.308898
461.784280	0.307563
462.156719	0.311076
462.529099	0.314674
462.901419	0.330532
463.273680	0.334527
463.645882	0.333397
464.018024	0.338658
464.390106	0.331733
464.762130	0.316225
465.134094	0.299341
465.505999	0.268578
465.877845	0.239227
466.249631	0.225977
466.621358	0.233321
466.993026	0.247161
467.364634	0.253003
467.736184	0.261579
468.107674	0.270119
468.479105	0.268879
468.850477	0.275591
469.221790	0.282281
469.593043	0.292673
469.964238	0.297317
470.335373	0.296816
470.706449	0.294899
471.077467	0.295595
471.448425	0.257379
471.819324	0.233548
472.190164	0.232794
472.560945	0.261127
472.931667	0.283398
473.302330	0.287399
473.672934	0.299491
474.043479	0.287471
474.413965	0.289435
474.784393	0.292509
475.154761	0.287872
475.525070	0.284593
475.895321	0.290407
476.265513	0.284814
476.635645	0.280197
477.005719	0.279855
477.375734	0.276751
477.745691	0.270113
478.115588	0.266685
478.485427	0.260047
478.855207	0.247135
479.224928	0.229527
479.594591	0.217772
479.964194	0.221258
480.333739	0.222260
480.703226	0.223755
481.072653	0.222240
481.442022	0.217879
481.811333	0.214418
482.180584	0.218233
482.549777	0.222992
482.918912	0.226536
483.287988	0.226310
483.657005	0.225968
484.025964	0.232345
484.394864	0.229754
484.763706	0.230371
485.132489	0.235098
485.501213	0.235755
485.869879	0.234104
486.238487	0.237492
486.607036	0.235431
486.975527	0.239800
487.343959	0.235863
487.712333	0.234891
488.080648	0.236403
488.448905	0.235383
488.817104	0.236545
489.185244	0.231361
489.553326	0.228128
489.921350	0.217960
490.289315	0.200579
490.657222	0.195593
491.025070	0.196705
491.392861	0.198613
491.760593	0.204473
492.128267	0.209872
492.495883	0.215661
492.863440	0.221692
493.230939	0.227980
493.598380	0.229383
493.965763	0.231451
494.333088	0.233828
494.700354	0.235263
495.067563	0.234365
495.434713	0.237520
495.801805	0.235226
496.168839	0.236465
496.535815	0.237884
496.902733	0.237902
497.269593	0.239606
497.636395	0.237428
498.003139	0.237813
498.369825	0.240508
498.736453	0.237105
499.103023	0.238390
499.469535	0.237852
499.835989	0.237939
500.202385	0.239120
500.568723	0.242161
500.935003	0.237495
501.301226	0.241737
501.667390	0.235960
502.033497	0.234200
502.399546	0.236980
502.765537	0.238689
503.131470	0.237327
503.497345	0.233678
503.863163	0.242193
504.228923	0.235113
504.594625	0.234092
504.960269	0.239475
505.325856	0.234626
505.691385	0.238915
506.056856	0.235632
506.422270	0.235188
506.787625	0.237524
507.152924	0.234811
507.518164	0.235407
507.883347	0.237246
508.248472	0.238840
508.613540	0.234075
508.978550	0.236904
509.343503	0.236895
509.708398	0.234495
510.073236	0.232233
510.438016	0.232176
510.802738	0.233103
511.167403	0.231841
511.532010	0.233987
511.896561	0.229581
512.261053	0.228239
512.625488	0.230255
512.989866	0.230764
513.354186	0.231131
513.718449	0.232685
514.082655	0.229041
514.446803	0.231183
514.810894	0.229004
515.174927	0.231786
515.538904	0.231219
515.902822	0.228217
516.266684	0.230435
516.630488	0.231692
516.994235	0.230505
517.357925	0.228978
517.721558	0.227513
518.085133	0.227102
518.448651	0.227154
518.812112	0.229459
519.175516	0.228944
519.538863	0.226824
519.902152	0.228313
520.265385	0.224969
520.628560	0.226845
520.991678	0.227344
521.354739	0.226186
521.717743	0.227423
522.080690	0.227809
522.443580	0.225174
522.806413	0.226225
523.169189	0.225495
523.531908	0.224366
523.894569	0.228043
524.257174	0.228027
524.619722	0.225742
524.982213	0.226638
525.344647	0.225510
525.707025	0.226395
526.069345	0.224597
526.431608	0.226168
526.793815	0.224356
527.155964	0.228341
527.518057	0.227313
527.880093	0.228492
528.242072	0.226687
528.603995	0.228732
528.965860	0.230551
529.327669	0.229370
529.689421	0.230176
530.051117	0.231042
530.412755	0.228936
530.774337	0.231163
531.135862	0.231313
531.497331	0.230973
531.858743	0.233711
532.220098	0.230479
532.581396	0.232954
532.942638	0.233415
533.303824	0.234436
533.664953	0.234110
534.026025	0.236038
534.387040	0.233767
534.747999	0.233717
535.108902	0.232679
535.469748	0.237545
535.830537	0.235676
536.191270	0.235954
536.551947	0.235538
536.912567	0.235245
537.273131	0.237314
537.633638	0.237237
537.994089	0.237624
538.354483	0.238725
538.714821	0.235745
539.075103	0.235469
539.435328	0.236662
539.795497	0.240155
540.155609	0.236630
540.515665	0.234857
540.875665	0.240384
541.235609	0.239142
541.595496	0.239055
541.955328	0.235610
542.315102	0.238693
542.674821	0.239343
543.034483	0.239460
543.394090	0.238964
543.753640	0.240954
544.113134	0.235831
544.472571	0.239053
544.831953	0.236020
545.191278	0.240389
545.550548	0.239897
545.909761	0.236535
546.268918	0.237427
546.628019	0.235823
546.987064	0.238576
547.346053	0.239961
547.704986	0.237952
548.063863	0.238156
548.422684	0.238442
548.781449	0.240374
549.140158	0.237751
549.498811	0.240726
549.857408	0.243877
550.215949	0.238592
550.574434	0.241645
550.932864	0.239852
551.291237	0.238378
551.649555	0.239717
552.007817	0.239504
552.366022	0.240316
552.724173	0.240169
553.082267	0.240825
553.440305	0.238049
553.798288	0.242045
554.156215	0.238909
554.514086	0.239431
554.871902	0.242828
555.229661	0.241986
555.587365	0.242339
555.945014	0.244756
556.302606	0.241939
556.660143	0.244368
557.017625	0.240892
557.375050	0.243225
557.732421	0.240052
558.089735	0.241933
558.446994	0.242175
558.804197	0.241269
559.161345	0.241760
559.518437	0.244812
559.875474	0.242504
560.232455	0.242050
560.589381	0.243225
560.946251	0.243155
561.303065	0.240641
561.659825	0.242262
562.016528	0.243730
562.373177	0.246442
562.729770	0.243989
563.086307	0.245932
563.442789	0.243611
563.799216	0.246598
564.155587	0.245535
564.511904	0.246605
564.868164	0.246584
565.224370	0.246472
565.580520	0.248072
565.936615	0.247727
566.292654	0.250870
566.648638	0.247875
567.004567	0.248932
567.360441	0.249583
567.716260	0.251691
568.072023	0.249656
568.427732	0.249896
568.783385	0.252599
569.138982	0.250689
569.494525	0.250200
569.850013	0.252953
570.205445	0.251473
570.560823	0.254267
570.916145	0.255974
571.271412	0.253995
571.626625	0.255624
571.981782	0.256242
572.336884	0.257060
572.691931	0.256838
573.046923	0.257901
573.401860	0.259113
573.756743	0.260944
574.111570	0.259857
574.466342	0.260240
574.821059	0.259525
575.175722	0.262279
575.530330	0.262172
575.884882	0.262267
576.239380	0.264049
576.593823	0.264902
576.948211	0.264021
577.302544	0.267653
577.656823	0.267086
578.011047	0.267382
578.365216	0.267890
578.719330	0.269879
579.073389	0.269791
579.427394	0.270888
579.781344	0.271714
580.135239	0.273291
580.489080	0.272575
580.842866	0.275530
581.196597	0.275927
581.550273	0.274281
581.903895	0.275748
582.257463	0.273242
582.610975	0.276752
582.964434	0.276009
583.317837	0.278486
583.671186	0.279174
584.024481	0.279016
584.377721	0.281457
584.730906	0.281941
585.084037	0.281352
585.437113	0.282972
585.790135	0.282867
586.143103	0.285511
586.496016	0.286636
586.848874	0.284086
587.201679	0.284931
587.554428	0.288062
587.907124	0.286854
588.259765	0.287400
588.612352	0.288018
588.964884	0.292082
589.317362	0.291350
589.669786	0.291477
590.022155	0.290080
590.374470	0.289237
590.726731	0.291441
591.078937	0.296022
591.431090	0.292315
591.783188	0.296495
592.135232	0.297069
592.487222	0.296733
592.839157	0.295138
593.191038	0.297441
593.542866	0.299161
593.894639	0.302756
594.246358	0.301046
594.598022	0.300170
594.949633	0.304177
595.301190	0.304483
595.652692	0.303574
596.004141	0.300146
596.355535	0.307964
596.706876	0.308883
597.058162	0.311380
597.409395	0.308364
597.760573	0.305780
598.111698	0.309190
598.462768	0.309766
598.813785	0.311017
599.164748	0.312392
599.515657	0.312685
599.866511	0.315729
600.217312	0.310894
600.568060	0.316441
600.918753	0.313006
601.269392	0.313738
601.619978	0.316911
601.970510	0.314942
602.320988	0.314891
602.671412	0.312769
603.021783	0.315063
603.372100	0.316412
603.722363	0.316451
604.072572	0.317304
604.422728	0.316561
604.772830	0.318665
605.122878	0.318556
605.472872	0.319049
605.822813	0.317281
606.172701	0.319981
606.522534	0.317213
606.872314	0.317235
607.222041	0.318454
607.571714	0.316133
607.921333	0.317528
608.270899	0.317483
608.620411	0.314313
608.969870	0.318446
609.319276	0.318007
609.668627	0.318203
610.017926	0.316531
610.367171	0.315101
610.716362	0.315875
611.065500	0.316323
611.414585	0.314954
611.763616	0.315733
612.112594	0.315710
612.461518	0.315480
612.810389	0.312967
613.159207	0.315395
613.507971	0.317501
613.856682	0.312741
614.205340	0.314677
614.553945	0.311549
614.902496	0.315210
615.250994	0.313061
615.599439	0.313672
615.947830	0.313306
616.296169	0.314639
616.644454	0.313990
616.992686	0.313792
617.340864	0.311605
617.688990	0.315643
618.037063	0.312044
618.385082	0.313854
618.733048	0.310694
619.080961	0.312825
619.428821	0.312191
619.776628	0.312231
620.124382	0.314053
620.472083	0.314164
620.819731	0.313519
621.167326	0.317447
621.514868	0.317282
621.862357	0.321413
622.209793	0.321136
622.557176	0.323485
622.904506	0.324033
623.251783	0.326672
623.599007	0.328933
623.946179	0.328483
624.293297	0.330190
624.640363	0.334256
624.987376	0.334823
625.334336	0.337570
625.681243	0.339288
626.028097	0.340359
626.374899	0.341453
626.721647	0.341158
627.068343	0.344704
627.414987	0.345866
627.761577	0.347968
628.108115	0.346193
628.454600	0.351289
628.801032	0.348496
629.147412	0.350878
629.493739	0.351040
629.840014	0.354239
630.186236	0.351887
630.532405	0.357360
630.878521	0.354820
631.224585	0.356987
631.570597	0.360365
631.916556	0.358727
632.262462	0.358670
632.608316	0.361293
632.954117	0.362181
633.299866	0.362675
633.645562	0.363599
633.991206	0.367388
634.336797	0.370424
634.682336	0.372803
635.027823	0.374048
635.373257	0.374947
635.718639	0.377980
636.063968	0.377561
636.409245	0.383540
636.754470	0.383579
637.099642	0.386128
637.444762	0.389258
637.789829	0.388770
638.134845	0.392245
638.479808	0.392849
638.824719	0.392785
639.169577	0.396611
639.514383	0.395648
639.859137	0.399849
640.203839	0.400245
640.548489	0.400447
640.893086	0.401910
641.237632	0.403853
641.582125	0.401801
641.926566	0.403748
642.270955	0.403565
642.615292	0.403815
642.959576	0.402481
643.303809	0.403530
643.647990	0.403152
643.992118	0.403875
644.336195	0.407119
644.680219	0.405446
645.024192	0.405838
645.368112	0.399535
645.711981	0.398596
646.055797	0.393902
646.399562	0.396164
646.743274	0.389019
647.086935	0.386087
647.430544	0.386221
647.774101	0.384801
648.117606	0.384476
648.461059	0.385067
648.804460	0.387480
649.147810	0.393150
649.491108	0.394561
649.834354	0.396112
650.177548	0.400877
650.520690	0.406830
650.863781	0.408064
651.206820	0.407054
651.549807	0.411922
651.892742	0.415904
652.235626	0.415327
652.578458	0.416024
652.921238	0.422578
653.263967	0.419713
653.606644	0.424357
653.949269	0.423624
654.291843	0.427571
654.634365	0.424497
654.976836	0.427617
655.319255	0.427717
655.661622	0.429444
656.003938	0.428900
656.346203	0.432386
656.688416	0.430264
657.030577	0.433890
657.372687	0.435699
657.714746	0.436151
658.056753	0.433462
658.398708	0.436989
658.740612	0.438512
659.082465	0.434453
659.424266	0.435470
659.766016	0.434230
660.107715	0.436978
660.449362	0.435784
660.790958	0.436632
661.132503	0.437335
661.473996	0.434534
661.815438	0.435835
662.156829	0.436011
662.498168	0.436660
662.839456	0.437875
663.180693	0.436226
663.521879	0.436513
663.863013	0.437198
664.204097	0.435481
664.545129	0.432034
664.886110	0.432830
665.227040	0.429750
665.567918	0.432442
665.908746	0.430538
666.249522	0.430238
666.590248	0.431048
666.930922	0.429630
667.271545	0.427934
667.612118	0.428061
667.952639	0.430183
668.293109	0.428753
668.633528	0.431305
668.973896	0.431230
669.314213	0.432068
669.654480	0.433093
669.994695	0.433946
670.334859	0.434755
670.674973	0.434859
671.015035	0.434564
671.355047	0.434815
671.695008	0.435930
672.034918	0.437889
672.374777	0.437419
672.714585	0.438233
673.054342	0.437441
673.394049	0.438302
673.733705	0.436129
674.073310	0.437149
674.412864	0.440180
674.752368	0.440510
675.091820	0.440948
675.431223	0.445521
675.770574	0.444818
676.109875	0.447835
676.449125	0.448169
676.788324	0.450191
677.127473	0.455687
677.466571	0.455563
677.805619	0.457244
678.144616	0.457986
678.483562	0.459898
678.822458	0.462525
679.161303	0.463501
679.500098	0.463343
679.838842	0.466093
680.177535	0.464953
680.516179	0.463608
680.854771	0.463049
681.193314	0.455920
681.531805	0.447537
681.870247	0.435677
682.208638	0.428183
682.546978	0.427693
682.885268	0.428789
683.223508	0.435507
683.561697	0.438767
683.899836	0.441798
684.237925	0.445362
684.575963	0.448015
684.913951	0.450652
685.251889	0.446573
685.589776	0.448391
685.927614	0.450888
686.265401	0.445421
686.603137	0.446793
686.940824	0.440436
687.278460	0.439192
687.616046	0.438202
687.953582	0.433465
688.291068	0.434566
688.628504	0.430763
688.965889	0.432289
689.303224	0.436644
689.640510	0.440558
689.977745	0.446541
690.314930	0.454255
690.652065	0.458637
690.989150	0.466134
691.326185	0.472573
691.663170	0.477057
692.000105	0.484650
692.336990	0.491895
692.673825	0.493868
693.010610	0.500445
693.347345	0.506385
693.684030	0.507861
694.020665	0.512557
694.357251	0.520951
694.693786	0.520997
695.030272	0.525292
695.366707	0.528629
695.703093	0.531930
696.039429	0.529536
696.375716	0.531964
696.711952	0.534262
697.048139	0.535743
697.384276	0.537827
697.720363	0.535985
698.056400	0.535396
698.392388	0.540841
698.728326	0.543295
699.064214	0.546982
699.400053	0.547885
699.735842	0.551374
700.071581	0.553610
700.407270	0.557115
700.742910	0.559717
701.078501	0.565243
701.414042	0.566464
701.749533	0.568915
702.084974	0.577666
702.420366	0.570146
702.755709	0.578264
703.091002	0.585752
703.426246	0.578769
703.761440	0.585266
704.096584	0.589598
704.431679	0.587164
704.766725	0.588868
705.101721	0.589899
705.436668	0.587009
705.771565	0.594167
706.106413	0.591158
706.441212	0.585357
706.775961	0.584226
707.110661	0.586660
707.445311	0.583236
707.779913	0.580535
708.114465	0.579742
708.448967	0.575713
708.783421	0.568319
709.117825	0.562629
709.452180	0.562206
709.786485	0.555936
710.120742	0.546529
710.454949	0.547964
710.789107	0.540518
711.123216	0.531968
711.457275	0.533235
711.791286	0.524026
712.125247	0.522769
712.459159	0.533717
712.793023	0.526571
713.126837	0.530536
713.460602	0.530440
713.794318	0.540914
714.127985	0.538508
714.461602	0.548861
714.795171	0.552834
715.128691	0.559956
715.462162	0.568186
715.795584	0.573402
716.128957	0.576528
716.462281	0.583012
716.795556	0.586641
717.128782	0.591203
717.461960	0.601191
717.795088	0.599000
718.128167	0.604967
718.461198	0.614101
718.794180	0.615132
719.127113	0.617719
719.459997	0.620998
719.792833	0.627518
720.125619	0.628949
720.458357	0.634707
720.791046	0.634227
721.123686	0.637219
721.456278	0.643950
721.788821	0.641876
722.121315	0.646036
722.453761	0.650533
722.786158	0.647976
723.118506	0.644170
723.450805	0.652232
723.783056	0.647919
724.115259	0.645767
724.447412	0.645740
724.779518	0.646683
725.111574	0.645442
725.443582	0.640585
725.775542	0.643031
726.107453	0.634798
726.439315	0.634906
726.771129	0.633898
727.102895	0.627046
727.434612	0.619912
727.766281	0.617277
728.097901	0.617613
728.429473	0.616583
728.760996	0.614975
729.092471	0.614952
729.423897	0.619173
729.755276	0.618117
730.086606	0.618589
730.417887	0.613302
730.749120	0.603998
731.080305	0.594717
731.411442	0.590725
731.742530	0.595391
732.073570	0.594945
732.404562	0.586495
732.735506	0.588643
733.066401	0.593250
733.397249	0.602200
733.728048	0.613448
734.058798	0.626256
734.389501	0.636708
734.720156	0.646412
735.050762	0.654954
735.381320	0.655705
735.711831	0.664470
736.042293	0.670183
736.372707	0.664556
736.703073	0.669818
737.033391	0.672045
737.363661	0.668894
737.693883	0.664196
738.024056	0.663664
738.354182	0.663769
738.684260	0.652910
739.014290	0.649571
739.344272	0.649830
739.674207	0.643600
740.004093	0.642705
740.333931	0.643660
740.663722	0.643614
740.993464	0.644054
741.323159	0.647361
741.652806	0.652043
741.982405	0.657271
742.311956	0.661736
742.641460	0.663982
742.970915	0.667820
743.300323	0.675111
743.629683	0.682173
743.958996	0.683427
744.288260	0.688042
744.617477	0.693201
744.946647	0.695898
745.275768	0.700370
745.604842	0.700217
745.933869	0.710115
746.262847	0.710808
746.591778	0.705258
746.920662	0.710949
747.249498	0.716943
747.578286	0.707911
747.907027	0.704006
748.235720	0.705588
748.564365	0.700548
748.892963	0.700152
749.221514	0.703413
749.550017	0.708128
749.878473	0.708125
750.206881	0.714501
750.535242	0.715918
750.863555	0.714714
751.191821	0.715882
751.520039	0.719406
751.848210	0.724813
752.176334	0.717007
752.504411	0.716671
752.832440	0.724222
753.160421	0.728479
753.488356	0.726644
753.816243	0.724104
754.144082	0.731962
754.471875	0.735820
754.799620	0.731190
755.127318	0.732176
755.454969	0.732810
755.782572	0.730970
756.110129	0.736515
756.437638	0.739212
756.765100	0.736171
757.092515	0.734100
757.419882	0.732428
757.747203	0.738712
758.074477	0.736885
758.401703	0.734799
758.728882	0.730335
759.056014	0.728141
759.383099	0.727499
759.710138	0.728362
760.037129	0.725271
760.364073	0.719412
760.690970	0.721490
761.017820	0.727178
761.344623	0.722727
761.671379	0.714024
761.998088	0.702434
762.324751	0.679201
762.651366	0.637685
762.977935	0.570491
763.304456	0.519313
763.630931	0.509432
763.957359	0.548765
764.283740	0.593129
764.610074	0.620195
764.936362	0.650749
765.262602	0.677218
765.588796	0.699424
765.914943	0.716965
766.241044	0.735211
766.567097	0.740859
766.893104	0.751810
767.219064	0.757746
767.544978	0.763574
767.870845	0.777518
768.196665	0.780812
768.522438	0.779320
768.848165	0.781051
769.173846	0.789247
769.499479	0.794224
769.825066	0.796765
770.150607	0.802553
770.476101	0.797682
770.801548	0.798506
771.126949	0.810117
771.452303	0.813461
771.777611	0.813342
772.102872	0.811745
772.428087	0.817947
772.753256	0.820099
773.078378	0.823530
773.403453	0.831846
773.728482	0.836504
774.053465	0.830593
774.378401	0.832119
774.703291	0.841939
775.028135	0.841382
775.352932	0.842599
775.677683	0.846360
776.002388	0.846420
776.327046	0.845798
776.651658	0.848375
776.976224	0.853068
777.300743	0.852178
777.625216	0.854917
777.949643	0.856720
778.274024	0.857157
778.598359	0.858696
778.922647	0.856455
779.246889	0.857342
779.571086	0.861294
779.895236	0.864445
780.219339	0.860117
780.543397	0.857620
780.867409	0.856547
781.191374	0.858972
781.515294	0.859372
781.839167	0.858546
782.162995	0.862286
782.486776	0.859708
782.810511	0.860789
783.134201	0.863169
783.457844	0.861212
783.781441	0.864669
784.104993	0.869959
784.428498	0.870788
784.751958	0.866478
785.075372	0.868624
785.398739	0.872774
785.722061	0.868840
786.045337	0.864061
786.368568	0.869091
786.691752	0.871810
787.014891	0.856403
787.337983	0.849047
787.661030	0.841093
787.984031	0.823786
788.306987	0.811381
788.629897	0.812845
788.952760	0.815943
789.275579	0.820790
789.598351	0.836401
789.921078	0.849821
790.243759	0.851262
790.566395	0.855893
790.888984	0.863426
791.211529	0.867981
791.534027	0.870779
791.856480	0.873897
792.178888	0.878840
792.501249	0.881042
792.823566	0.882256
793.145836	0.882720
793.468062	0.884217
793.790241	0.884798
794.112375	0.882792
794.434464	0.877533
794.756507	0.877877
795.078505	0.876986
795.400457	0.871940
795.722364	0.860130
796.044226	0.853586
796.366042	0.851680
796.687812	0.855609
797.009538	0.850677
797.331218	0.854594
797.652852	0.858706
797.974442	0.864419
798.295986	0.863746
798.617484	0.865997
798.938938	0.870638
799.260346	0.875648
799.581709	0.877436
799.903026	0.879597
800.224299	0.879983
800.545526	0.884238
800.866708	0.888177
801.187845	0.893009
801.508936	0.891462
801.829983	0.889189
802.150984	0.892438
802.471940	0.897229
802.792851	0.897550
803.113717	0.897684
803.434538	0.895705
803.755314	0.897520
804.076045	0.899757
804.396731	0.900103
804.717372	0.899100
805.037967	0.901586
805.358518	0.899383
805.679024	0.896809
805.999485	0.895859
806.319901	0.896984
806.640272	0.897801
806.960598	0.896621
807.280879	0.893276
807.601115	0.891481
807.921306	0.894705
808.241453	0.895523
808.561554	0.893500
808.881611	0.893985
809.201623	0.895849
809.521590	0.895302
809.841513	0.895898
810.161390	0.896102
810.481223	0.897746
810.801011	0.901530
811.120755	0.902423
811.440453	0.901514
811.760107	0.900309
812.079716	0.901214
812.399281	0.903343
812.718801	0.906450
813.038276	0.906942
813.357707	0.906572
813.677093	0.902547
813.996434	0.906314
814.315731	0.909209
814.634983	0.909708
814.954191	0.908005
815.273354	0.905447
815.592473	0.901339
815.911547	0.901298
816.230577	0.898693
816.549562	0.895088
816.868502	0.897337
817.187399	0.893705
817.506250	0.886822
817.825058	0.890168
818.143821	0.886639
818.462539	0.881605
818.781213	0.873989
819.099843	0.862466
819.418429	0.846489
819.736970	0.829459
820.055466	0.809595
820.373919	0.783448
820.692327	0.751134
821.010691	0.717203
821.329011	0.639726
821.647286	0.524075
821.965517	0.411058
822.283704	0.368588
822.601847	0.369930
822.919945	0.405554
823.237999	0.438965
823.556010	0.485229
823.873976	0.541651
824.191897	0.591591
824.509775	0.634749
824.827609	0.680056
825.145398	0.701804
825.463144	0.705096
825.780845	0.688324
826.098502	0.668936
826.416116	0.623433
826.733685	0.579102
827.051210	0.571502
827.368692	0.585784
827.686129	0.623493
828.003522	0.676067
828.320872	0.723123
828.638177	0.766875
828.955439	0.800242
829.272656	0.821517
829.589830	0.838741
829.906960	0.854316
830.224046	0.866265
830.541088	0.877901
830.858086	0.881483
831.175041	0.887826
831.491952	0.886702
831.808819	0.883560
832.125642	0.876425
832.442421	0.861393
832.759157	0.840313
833.075849	0.792901
833.392497	0.730609
833.709101	0.690607
834.025662	0.699245
834.342179	0.731097
834.658653	0.770269
834.975083	0.805627
835.291469	0.830894
835.607811	0.854570
835.924110	0.870321
836.240366	0.887202
836.556578	0.900933
836.872746	0.908994
837.188871	0.915053
837.504952	0.919819
837.820990	0.922586
838.136984	0.927188
838.452935	0.930661
838.768842	0.931619
839.084706	0.925115
839.400526	0.899140
839.716303	0.858676
840.032037	0.836704
840.347727	0.839838
840.663373	0.857932
840.978977	0.880141
841.294537	0.901604
841.610054	0.917420
841.925527	0.926774
842.240957	0.932678
842.556344	0.940621
842.871687	0.944959
843.186987	0.950296
843.502244	0.949828
843.817458	0.952114
844.132629	0.955405
844.447756	0.960992
844.762840	0.960568
845.077881	0.959899
845.392879	0.960316
845.707833	0.963245
846.022745	0.965052
846.337613	0.964343
846.652438	0.966447
846.967221	0.964766
847.281960	0.965799
847.596656	0.967908
847.911309	0.965666
848.225919	0.967279
848.540485	0.967973
848.855009	0.969322
849.169490	0.968605
849.483928	0.969354
849.798323	0.969110
850.112675	0.969855
850.426984	0.968595
850.741251	0.970172
851.055474	0.969693
851.369654	0.968309
851.683792	0.968625
851.997887	0.970341
852.311938	0.970366
852.625947	0.969358
852.939914	0.968417
853.253837	0.969848
853.567718	0.971682
853.881555	0.969916
854.195350	0.967674
854.509103	0.969059
854.822812	0.970685
855.136479	0.970119
855.450103	0.969169
855.763685	0.968427
856.077224	0.968592
856.390720	0.970423
856.704173	0.969380
857.017584	0.968858
857.330953	0.966981
857.644278	0.967569
857.957561	0.968228
858.270802	0.967858
858.584000	0.967081
858.897155	0.966512
859.210268	0.967826
859.523339	0.967929
859.836367	0.969582
860.149352	0.970125
860.462295	0.968151
860.775195	0.969521
861.088054	0.969486
861.400869	0.969258
861.713642	0.969791
862.026373	0.970989
862.339062	0.970763
862.651708	0.968141
862.964312	0.967952
863.276873	0.968828
863.589392	0.968013
863.901869	0.966335
864.214303	0.964508
864.526696	0.963287
864.839045	0.963653
865.151353	0.961989
865.463619	0.962382
865.775842	0.962215
866.088023	0.961916
866.400162	0.962523
866.712258	0.962322
867.024313	0.962821
867.336325	0.963682
867.648296	0.962417
867.960224	0.962110
868.272110	0.962140
868.583954	0.962909
868.895755	0.963310
869.207515	0.961308
869.519233	0.958255
869.830909	0.960852
870.142542	0.962455
870.454134	0.961924
870.765684	0.960864
871.077191	0.958065
871.388657	0.958192
871.700081	0.957142
872.011463	0.958841
872.322803	0.958198
872.634101	0.956462
872.945357	0.954881
873.256571	0.953144
873.567744	0.952707
873.878874	0.953334
874.189963	0.952161
874.501010	0.951820
874.812015	0.950006
875.122979	0.950904
875.433900	0.954582
875.744780	0.952822
876.055618	0.951181
876.366415	0.950209
876.677169	0.949189
876.987882	0.951347
877.298554	0.950407
877.609183	0.947006
877.919771	0.944724
878.230317	0.942588
878.540822	0.940535
878.851285	0.935130
879.161707	0.927227
879.472087	0.914594
879.782425	0.898971
880.092722	0.865667
880.402977	0.813424
880.713191	0.752899
881.023363	0.694624
881.333494	0.661071
881.643583	0.633258
881.953631	0.632188
882.263637	0.660380
882.573602	0.699816
882.883526	0.726246
883.193408	0.749281
883.503248	0.771804
883.813048	0.798416
884.122806	0.828934
884.432522	0.851246
884.742197	0.870827
885.051831	0.881589
885.361424	0.891623
885.670975	0.904358
885.980485	0.913723
886.289954	0.919738
886.599382	0.925365
886.908768	0.928357
887.218113	0.934051
887.527417	0.939712
887.836680	0.942790
888.145901	0.944631
888.455082	0.945620
888.764221	0.949589
889.073319	0.953282
889.382376	0.952667
889.691392	0.952626
890.000366	0.951976
890.309300	0.954654
890.618193	0.953404
890.927044	0.952344
891.235855	0.951907
891.544625	0.950986
891.853353	0.951669
892.162041	0.948652
892.470687	0.943238
892.779293	0.938573
893.087858	0.933827
893.396381	0.927242
893.704864	0.913546
894.013306	0.889740
894.321707	0.862964
894.630068	0.848270
894.938387	0.845131
895.246665	0.845054
895.554903	0.857772
895.863100	0.869580
896.171256	0.887649
896.479371	0.907117
896.787446	0.919707
897.095480	0.924960
897.403473	0.927982
897.711425	0.932013
898.019336	0.940142
898.327207	0.943839
898.635038	0.945420
898.942827	0.945725
899.250576	0.948046
899.558284	0.953727
899.865952	0.954055
900.173579	0.954974
900.481165	0.956300
900.788711	0.960302
901.096216	0.961342
901.403681	0.961939
901.711105	0.964044
902.018489	0.963562
902.325832	0.963715
902.633135	0.961687
902.940397	0.956219
903.247619	0.944565
903.554800	0.919268
903.861941	0.879953
904.169041	0.844393
904.476101	0.828110
904.783121	0.826538
905.090100	0.844304
905.397039	0.865107
905.703938	0.887566
906.010796	0.907056
906.317614	0.922593
906.624391	0.934677
906.931129	0.944476
907.237826	0.952221
907.544483	0.958925
907.851099	0.962113
908.157675	0.968355
908.464211	0.969285
908.770707	0.972391
909.077163	0.974538
909.383578	0.974211
909.689954	0.974750
909.996289	0.975172
910.302584	0.978371
910.608839	0.978835
910.915054	0.977530
911.221229	0.978655
911.527363	0.976266
911.833458	0.976373
912.139513	0.975963
912.445527	0.975451
912.751502	0.973682
913.057436	0.972660
913.363331	0.970057
913.669186	0.966242
913.975000	0.962032
914.280775	0.954841
914.586510	0.947798
914.892205	0.934962
915.197859	0.914133
915.503475	0.887689
915.809050	0.868217
916.114585	0.862284
916.420081	0.860020
916.725536	0.857323
917.030952	0.864450
917.336328	0.877079
917.641665	0.892180
917.946961	0.908411
918.252218	0.919068
918.557435	0.927967
918.862612	0.936458
919.167750	0.942322
919.472848	0.947240
919.777906	0.952495
920.082925	0.957754
920.387904	0.961875
920.692843	0.963371
920.997743	0.964012
921.302603	0.967674
921.607423	0.969201
921.912204	0.971815
922.216946	0.972296
922.521647	0.972391
922.826310	0.974722
923.130932	0.976518
923.435516	0.978409
923.740059	0.979579
924.044564	0.979002
924.349028	0.979961
924.653454	0.982966
924.957840	0.984807
925.262186	0.984247
925.566493	0.983720
925.870761	0.984951
926.174989	0.986207
926.479178	0.988605
926.783328	0.987730
927.087438	0.988655
927.391509	0.988067
927.695541	0.989466
927.999533	0.988445
928.303486	0.990206
928.607400	0.991188
928.911275	0.987976
929.215110	0.990512
929.518906	0.990501
929.822663	0.989520
930.126381	0.990831
930.430060	0.990261
930.733699	0.991063
931.037299	0.989640
931.340861	0.990692
931.644383	0.989432
931.947866	0.988063
932.251309	0.989601
932.554714	0.991002
932.858080	0.990799
933.161407	0.989983
933.464694	0.990409
933.767943	0.989762
934.071153	0.990408
934.374323	0.991142
934.677455	0.990442
934.980548	0.991479
935.283602	0.990396
935.586617	0.990954
935.889593	0.989638
936.192530	0.990197
936.495428	0.991705
936.798287	0.990705
937.101108	0.991015
937.403890	0.988433
937.706632	0.988545
938.009336	0.987705
938.312002	0.985412
938.614628	0.985020
938.917216	0.983051
939.219765	0.981765
939.522275	0.982123
939.824747	0.984130
940.127179	0.983233
940.429573	0.984804
940.731929	0.983357
941.034246	0.983415
941.336524	0.985793
941.638763	0.985494
941.940964	0.986743
942.243126	0.986937
942.545250	0.988671
942.847335	0.988293
943.149381	0.987508
943.451389	0.987720
943.753359	0.988173
944.055290	0.989582
944.357182	0.989116
944.659036	0.989120
944.960851	0.988706
945.262628	0.989585
945.564367	0.990104
945.866067	0.988696
946.167729	0.988537
946.469352	0.988870
946.770937	0.988297
947.072484	0.989722
947.373992	0.991064
947.675462	0.989488
947.976893	0.990242
948.278286	0.989684
948.579641	0.992117
948.880958	0.989631
949.182236	0.991450
949.483476	0.991202
949.784678	0.988909
950.085841	0.991970
950.386967	0.990066
950.688054	0.990094
950.989103	0.991104
951.290114	0.989391
951.591087	0.988643
951.892021	0.989288
952.192917	0.988624
952.493776	0.988032
952.794596	0.988375
953.095378	0.987086
953.396122	0.988166
953.696828	0.988549
953.997496	0.989945
954.298126	0.991194
954.598718	0.991208
954.899272	0.990408
955.199788	0.990027
955.500266	0.992017
955.800706	0.993033
956.101108	0.992321
956.401472	0.993303
956.701798	0.993261
957.002087	0.992333
957.302337	0.993166
957.602550	0.995539
957.902724	0.994877
958.202861	0.995143
958.502960	0.995340
958.803022	0.993539
959.103045	0.995287
959.403031	0.995615
959.702979	0.995043
960.002889	0.996069
960.302762	0.993158
960.602596	0.995582
960.902393	0.994522
961.202153	0.997401
961.501875	0.996587
961.801559	0.995824
962.101205	0.995701
962.400814	0.997097
962.700385	0.997357
962.999918	0.995775
963.299414	0.996092
963.598873	0.995365
963.898293	0.996334
964.197677	0.995125
964.497022	0.996023
964.796331	0.998275
965.095601	0.995134
965.394835	0.995646
965.694030	0.996049
965.993189	0.996975
966.292309	0.995582
966.591393	0.997385
966.890439	0.996355
967.189447	0.996602
967.488419	0.997157
967.787353	0.995845
968.086249	0.995675
968.385108	0.996754
968.683930	0.996788
968.982714	0.998215
969.281462	0.997237
969.580172	0.996834
969.878844	0.996143
970.177480	0.996013
970.476078	0.996203
970.774639	0.996712
971.073162	0.996432
971.371649	0.996499
971.670098	0.996123
971.968510	0.996833
972.266885	0.995624
972.565223	0.996168
972.863524	0.996412
973.161788	0.995929
973.460014	0.997849
973.758204	0.995817
974.056356	0.996412
974.354471	0.993952
974.652550	0.995031
974.950591	0.996390
975.248595	0.996484
975.546563	0.996017
975.844493	0.997812
976.142386	0.996713
976.440243	0.996531
976.738062	0.997452
977.035845	0.997503
977.333590	0.995828
977.631299	0.996743
977.928971	0.997005
978.226606	0.996558
978.524204	0.995255
978.821765	0.998534
979.119290	0.996386
979.416777	0.997426
979.714228	0.996855
980.011642	0.995658
980.309020	0.997532
980.606360	0.996408
980.903664	0.997979
981.200931	0.996877
981.498162	0.995311
981.795356	0.994183
982.092513	0.993755
982.389633	0.994352
982.686717	0.990781
982.983764	0.992024
983.280775	0.990641
983.577749	0.990824
983.874686	0.991805
984.171587	0.991453
984.468451	0.994825
984.765279	0.993769
985.062070	0.993879
985.358824	0.995631
985.655543	0.994713
985.952224	0.994626
986.248869	0.996924
986.545478	0.996242
986.842050	0.998302
987.138586	0.995173
987.435086	0.996813
987.731549	0.998201
988.027975	0.996376
988.324366	0.997141
988.620719	0.998140
988.917037	0.995628
989.213318	0.998499
989.509563	0.998166
989.805772	0.997328
990.101944	0.998429
990.398080	0.997559
990.694180	0.997600
990.990244	0.996542
991.286271	0.996787
991.582262	0.997888
991.878217	0.997357
992.174136	0.998442
992.470019	0.997729
992.765865	0.997295
993.061676	0.997313
993.357450	0.997432
993.653188	0.996389
993.948890	0.997908
994.244556	0.998484
994.540186	0.996140
994.835780	0.996031
995.131337	0.996517
995.426859	0.996656
995.722345	0.997720
996.017795	0.995864
996.313208	0.994837
996.608586	0.995540
996.903928	0.997405
997.199234	0.996143
997.494504	0.996424
997.789738	0.995835
998.084936	0.995920
998.380099	0.997945
998.675225	0.997509
998.970316	0.998242
999.265371	0.997539
999.560390	0.996704
999.855373	0.998019
1000.150320	0.997366
1000.445232	0.998343
1000.740108	0.997537
1001.034948	0.998202
1001.329752	0.998690
1001.624521	0.998443
1001.919254	0.998158
1002.213951	0.997474
1002.508613	0.997365
1002.803239	0.997935
1003.097829	0.998617
1003.392384	0.998642
1003.686903	0.996999
1003.981386	0.998708
1004.275834	0.998985
1004.570246	0.998755
1004.864623	0.998967
1005.158964	0.999353
1005.453270	0.997751
1005.747540	0.997133
1006.041775	0.996804
1006.335974	0.999257
1006.630138	0.997753
1006.924266	1.000168
1007.218359	1.000503
1007.512416	0.998965
1007.806438	0.999041
1008.100425	0.999497
1008.394376	0.997774
1008.688292	0.998529
1008.982172	1.000598
1009.276017	1.000554
1009.569827	0.998438
1009.863602	0.998149
1010.157341	0.998334
1010.451045	0.998853
1010.744714	0.999440
1011.038347	0.999621
1011.331945	0.998589
1011.625508	0.997411
1011.919036	0.998739
1012.212528	0.998236
1012.505986	0.997382
1012.799408	0.999115
1013.092795	0.999267
1013.386147	0.998964
1013.679464	0.998242
1013.972745	0.997499
1014.265992	0.997097
1014.559204	0.998063
1014.852380	0.999263
1015.145521	0.998118
1015.438628	0.999024
1015.731699	0.998173
1016.024736	0.998208
1016.317737	0.999186
1016.610703	0.998009
1016.903635	0.999122
1017.196531	0.998984
1017.489393	0.999517
1017.782219	0.997812
1018.075011	0.998039
1018.367768	0.998170
1018.660490	0.999426
1018.953177	0.999426
1019.245829	0.999426
