Dividing Wavelength (nm)	Counts (n)	Blue Motor Position (mm): 0.000000	Red Motor Position (mm): 25.500000	
326.493990	1.000168
326.888308	1.000168
327.282561	1.000168
327.676750	0.999459
328.070874	0.999595
328.464933	0.999743
328.858929	0.998914
329.252859	1.000275
329.646726	0.999017
330.040528	0.999161
330.434265	0.998270
330.827938	0.999783
331.221547	1.000586
331.615091	0.999581
332.008571	1.000042
332.401986	0.999821
332.795338	0.999518
333.188625	0.999061
333.581847	0.999023
333.975006	0.998594
334.368100	0.999372
334.761129	0.998954
335.154095	1.000127
335.546996	0.997909
335.939833	0.993979
336.332606	0.994475
336.725315	0.995447
337.117960	0.995213
337.510540	0.994187
337.903056	0.993772
338.295508	0.993189
338.687896	0.994621
339.080220	0.994810
339.472480	0.994709
339.864676	0.993635
340.256807	0.994795
340.648875	0.994658
341.040879	0.994763
341.432818	0.994726
341.824694	0.994914
342.216506	0.994577
342.608253	0.994938
342.999937	0.993832
343.391557	0.993876
343.783113	0.993936
344.174605	0.994128
344.566033	0.994612
344.957397	0.993358
345.348697	0.994965
345.739934	0.994051
346.131106	0.993396
346.522215	0.994447
346.913260	0.994737
347.304241	0.994441
347.695159	0.994074
348.086012	0.992627
348.476802	0.993525
348.867528	0.994318
349.258191	0.994592
349.648789	0.993645
350.039324	0.995462
350.429796	0.995045
350.820203	0.995002
351.210548	0.994218
351.600828	0.994434
351.991045	0.995082
352.381198	0.993280
352.771288	0.993722
353.161314	0.993962
353.551276	0.995190
353.941175	0.994357
354.331010	0.994580
354.720782	0.995767
355.110490	0.993652
355.500135	0.994666
355.889717	0.994263
356.279235	0.994374
356.668689	0.992669
357.058080	0.994444
357.447408	0.995277
357.836672	0.994513
358.225873	0.995630
358.615010	0.994696
359.004084	0.995749
359.393095	0.994882
359.782043	0.994211
360.170927	0.995455
360.559748	0.995643
360.948505	0.994259
361.337199	0.994622
361.725830	0.994433
362.114398	0.993014
362.502903	0.995605
362.891344	0.995154
363.279722	0.994335
363.668037	0.995825
364.056289	0.994337
364.444478	0.994073
364.832603	0.994990
365.220665	0.994142
365.608665	0.993628
365.996601	0.994488
366.384474	0.994416
366.772284	0.994809
367.160031	0.993072
367.547715	0.993011
367.935336	0.994723
368.322893	0.993377
368.710388	0.993907
369.097820	0.993644
369.485189	0.994332
369.872495	0.993579
370.259738	0.992114
370.646918	0.994871
371.034035	0.994278
371.421090	0.993926
371.808081	0.993948
372.195010	0.993976
372.581875	0.995526
372.968678	0.995152
373.355418	0.994666
373.742096	0.994743
374.128710	0.996154
374.515262	0.994415
374.901751	0.995045
375.288177	0.994606
375.674540	0.995226
376.060841	0.994645
376.447079	0.994750
376.833254	0.996126
377.219367	0.994673
377.605417	0.995028
377.991404	0.995555
378.377329	0.994062
378.763191	0.995014
379.148991	0.995422
379.534727	0.995985
379.920402	0.994512
380.306013	0.995560
380.691563	0.995534
381.077049	0.994848
381.462474	0.995121
381.847835	0.995083
382.233134	0.995066
382.618371	0.994915
383.003545	0.995490
383.388657	0.994304
383.773706	0.996270
384.158693	0.995420
384.543618	0.995947
384.928480	0.996005
385.313280	0.995258
385.698017	0.996372
386.082692	0.996031
386.467305	0.996301
386.851856	0.996441
387.236344	0.995925
387.620770	0.994927
388.005133	0.996987
388.389435	0.996737
388.773674	0.995552
389.157851	0.996933
389.541965	0.996316
389.926018	0.995600
390.310008	0.996991
390.693936	0.996292
391.077802	0.997027
391.461606	0.995762
391.845348	0.996277
392.229027	0.997847
392.612645	0.996130
392.996200	0.997248
393.379694	0.996656
393.763125	0.997895
394.146494	0.997161
394.529801	0.995448
394.913047	0.997424
395.296230	0.996481
395.679351	0.996656
396.062410	0.997458
396.445408	0.996913
396.828343	0.996613
397.211217	0.995424
397.594028	0.996788
397.976778	0.995572
398.359466	0.996987
398.742092	0.996087
399.124656	0.996972
399.507158	0.997446
399.889598	0.996480
400.271977	0.997038
400.654294	0.997720
401.036549	0.996701
401.418742	0.997141
401.800874	0.996082
402.182944	0.996604
402.564952	0.995909
402.946898	0.997782
403.328783	0.996850
403.710606	0.997135
404.092367	0.996648
404.474067	0.996716
404.855705	0.996440
405.237282	0.996749
405.618797	0.997087
406.000250	0.995748
406.381642	0.997773
406.762972	0.996701
407.144240	0.997464
407.525447	0.997480
407.906593	0.997658
408.287677	0.997167
408.668700	0.997426
409.049661	0.996948
409.430560	0.996588
409.811399	0.996694
410.192176	0.996545
410.572891	0.996283
410.953545	0.996825
411.334138	0.995800
411.714669	0.997298
412.095139	0.995574
412.475547	0.996681
412.855894	0.997377
413.236180	0.998115
413.616405	0.997253
413.996568	0.997391
414.376670	0.996891
414.756711	0.996144
415.136691	0.997070
415.516609	0.996300
415.896466	0.996273
416.276262	0.996249
416.655997	0.997530
417.035670	0.995941
417.415283	0.996924
417.794834	0.996588
418.174324	0.997518
418.553753	0.996570
418.933121	0.997255
419.312428	0.996046
419.691674	0.997153
420.070859	0.998035
420.449983	0.996611
420.829045	0.997432
421.208047	0.998065
421.586988	0.996849
421.965867	0.996728
422.344686	0.997599
422.723444	0.997339
423.102141	0.997083
423.480777	0.997394
423.859352	0.997076
424.237866	0.996757
424.616319	0.997137
424.994712	0.997457
425.373044	0.998077
425.751314	0.996762
426.129524	0.996571
426.507673	0.997125
426.885762	0.997238
427.263789	0.996508
427.641756	0.997464
428.019662	0.997450
428.397508	0.996446
428.775292	0.996017
429.153016	0.996422
429.530679	0.997189
429.908282	0.996849
430.285824	0.995971
430.663305	0.996107
431.040726	0.995698
431.418086	0.997723
431.795385	0.996198
432.172624	0.995308
432.549802	0.996480
432.926920	0.995731
433.303977	0.994843
433.680974	0.995528
434.057910	0.995196
434.434786	0.995120
434.811601	0.994886
435.188355	0.994703
435.565050	0.993806
435.941683	0.992934
436.318257	0.993516
436.694770	0.992656
437.071222	0.991988
437.447614	0.991550
437.823946	0.990016
438.200218	0.989590
438.576429	0.988559
438.952580	0.987837
439.328670	0.985481
439.704700	0.985712
440.080670	0.984401
440.456580	0.981887
440.832429	0.981002
441.208218	0.979756
441.583947	0.977257
441.959616	0.975882
442.335224	0.973925
442.710773	0.972830
443.086261	0.969074
443.461689	0.967159
443.837057	0.964852
444.212365	0.961747
444.587612	0.959345
444.962800	0.956843
445.337927	0.953430
445.712995	0.952081
446.088002	0.946009
446.462949	0.943508
446.837837	0.940659
447.212664	0.937871
447.587431	0.931475
447.962139	0.923920
448.336786	0.912777
448.711374	0.911289
449.085901	0.913287
449.460369	0.909059
449.834776	0.903511
450.209124	0.896127
450.583412	0.888298
450.957640	0.883236
451.331808	0.879006
451.705917	0.877677
452.079965	0.872406
452.453954	0.864677
452.827883	0.859735
453.201752	0.853645
453.575562	0.850042
453.949311	0.839036
454.323001	0.834987
454.696632	0.827390
455.070202	0.817764
455.443713	0.809062
455.817164	0.800177
456.190556	0.791153
456.563888	0.782199
456.937160	0.774496
457.310373	0.772804
457.683526	0.763778
458.056619	0.758867
458.429653	0.751342
458.802628	0.744255
459.175542	0.734748
459.548398	0.718966
459.921194	0.708590
460.293930	0.700875
460.666607	0.679414
461.039224	0.666817
461.411782	0.657031
461.784280	0.648003
462.156719	0.642030
462.529099	0.635611
462.901419	0.635162
463.273680	0.628737
463.645882	0.621048
464.018024	0.614841
464.390106	0.602763
464.762130	0.585746
465.134094	0.568945
465.505999	0.543484
465.877845	0.518427
466.249631	0.502541
466.621358	0.497464
466.993026	0.495782
467.364634	0.490938
467.736184	0.488436
468.107674	0.485900
468.479105	0.476564
468.850477	0.475627
469.221790	0.471967
469.593043	0.472393
469.964238	0.467545
470.335373	0.459906
470.706449	0.452249
471.077467	0.447172
471.448425	0.411383
471.819324	0.386730
472.190164	0.380294
472.560945	0.397105
472.931667	0.408030
473.302330	0.406275
473.672934	0.410856
474.043479	0.395502
474.413965	0.392004
474.784393	0.390106
475.154761	0.380758
475.525070	0.373479
475.895321	0.374436
476.265513	0.365106
476.635645	0.356981
477.005719	0.352411
477.375734	0.345663
477.745691	0.336278
478.115588	0.329270
478.485427	0.319644
478.855207	0.305039
479.224928	0.286237
479.594591	0.272801
479.964194	0.271546
480.333739	0.269423
480.703226	0.267070
481.072653	0.263424
481.442022	0.257223
481.811333	0.251654
482.180584	0.252563
482.549777	0.254970
482.918912	0.256192
483.287988	0.254160
483.657005	0.251790
484.025964	0.256177
484.394864	0.251597
484.763706	0.250787
485.132489	0.254321
485.501213	0.253531
485.869879	0.250979
486.238487	0.252706
486.607036	0.249723
486.975527	0.253101
487.343959	0.248177
487.712333	0.246527
488.080648	0.247076
488.448905	0.245622
488.817104	0.246133
489.185244	0.239983
489.553326	0.236671
489.921350	0.226010
490.289315	0.208186
490.657222	0.203051
491.025070	0.203676
491.392861	0.205371
491.760593	0.210488
492.128267	0.215899
492.495883	0.221077
492.863440	0.226998
493.230939	0.233008
493.598380	0.234001
493.965763	0.235791
494.333088	0.238289
494.700354	0.239167
495.067563	0.238330
495.434713	0.241359
495.801805	0.239100
496.168839	0.240349
496.535815	0.241507
496.902733	0.241467
497.269593	0.242827
497.636395	0.240759
498.003139	0.240708
498.369825	0.243528
498.736453	0.239901
499.103023	0.241302
499.469535	0.240588
499.835989	0.240748
500.202385	0.241899
500.568723	0.244731
500.935003	0.239970
501.301226	0.244250
501.667390	0.238390
502.033497	0.236647
502.399546	0.239524
502.765537	0.241024
503.131470	0.239318
503.497345	0.235863
503.863163	0.244310
504.228923	0.237405
504.594625	0.235825
504.960269	0.241519
505.325856	0.236629
505.691385	0.240660
506.056856	0.237715
506.422270	0.236730
506.787625	0.239501
507.152924	0.236670
507.518164	0.237032
507.883347	0.238812
508.248472	0.240478
508.613540	0.235583
508.978550	0.237891
509.343503	0.238448
509.708398	0.236052
510.073236	0.233893
510.438016	0.233655
510.802738	0.234584
511.167403	0.233562
511.532010	0.235281
511.896561	0.230664
512.261053	0.229622
512.625488	0.231528
512.989866	0.232229
513.354186	0.232124
513.718449	0.233877
514.082655	0.230499
514.446803	0.232688
514.810894	0.230594
515.174927	0.232955
515.538904	0.232218
515.902822	0.229356
516.266684	0.231742
516.630488	0.232906
516.994235	0.231524
517.357925	0.230327
517.721558	0.228617
518.085133	0.227964
518.448651	0.228450
518.812112	0.230223
519.175516	0.229882
519.538863	0.227961
519.902152	0.229242
520.265385	0.226286
520.628560	0.228233
520.991678	0.228210
521.354739	0.227127
521.717743	0.228548
522.080690	0.228742
522.443580	0.226233
522.806413	0.227350
523.169189	0.226726
523.531908	0.225379
523.894569	0.228883
524.257174	0.229051
524.619722	0.226536
524.982213	0.227552
525.344647	0.226758
525.707025	0.227727
526.069345	0.225406
526.431608	0.227695
526.793815	0.225324
527.155964	0.229080
527.518057	0.228313
527.880093	0.229506
528.242072	0.228126
528.603995	0.229846
528.965860	0.231576
529.327669	0.230406
529.689421	0.231357
530.051117	0.231926
530.412755	0.229761
530.774337	0.232047
531.135862	0.232544
531.497331	0.231807
531.858743	0.234886
532.220098	0.231612
532.581396	0.234060
532.942638	0.234460
533.303824	0.235247
533.664953	0.235138
534.026025	0.236726
534.387040	0.234790
534.747999	0.234646
535.108902	0.233576
535.469748	0.238739
535.830537	0.236545
536.191270	0.236980
536.551947	0.236345
536.912567	0.236537
537.273131	0.238272
537.633638	0.238226
537.994089	0.238728
538.354483	0.239842
538.714821	0.236988
539.075103	0.236768
539.435328	0.237082
539.795497	0.241008
540.155609	0.237725
540.515665	0.235853
540.875665	0.241355
541.235609	0.239891
541.595496	0.239965
541.955328	0.236725
542.315102	0.239186
542.674821	0.240186
543.034483	0.240285
543.394090	0.240141
543.753640	0.241952
544.113134	0.236806
544.472571	0.240006
544.831953	0.236919
545.191278	0.241415
545.550548	0.240584
545.909761	0.237734
546.268918	0.238111
546.628019	0.236525
546.987064	0.239126
547.346053	0.241111
547.704986	0.239049
548.063863	0.239025
548.422684	0.239241
548.781449	0.241390
549.140158	0.238942
549.498811	0.241880
549.857408	0.244718
550.215949	0.239623
550.574434	0.242843
550.932864	0.240736
551.291237	0.239458
551.649555	0.240664
552.007817	0.240299
552.366022	0.241394
552.724173	0.241569
553.082267	0.241860
553.440305	0.238767
553.798288	0.243382
554.156215	0.239672
554.514086	0.240201
554.871902	0.243785
555.229661	0.242960
555.587365	0.243501
555.945014	0.246006
556.302606	0.242705
556.660143	0.245307
557.017625	0.241541
557.375050	0.243920
557.732421	0.241107
558.089735	0.243345
558.446994	0.243461
558.804197	0.242296
559.161345	0.242247
559.518437	0.246012
559.875474	0.243723
560.232455	0.243035
560.589381	0.243966
560.946251	0.244257
561.303065	0.241785
561.659825	0.243051
562.016528	0.244651
562.373177	0.247480
562.729770	0.244820
563.086307	0.246928
563.442789	0.244550
563.799216	0.247528
564.155587	0.246389
564.511904	0.247461
564.868164	0.247546
565.224370	0.247349
565.580520	0.249083
565.936615	0.249223
566.292654	0.252130
566.648638	0.249327
567.004567	0.249803
567.360441	0.250524
567.716260	0.252854
568.072023	0.250332
568.427732	0.251299
568.783385	0.253440
569.138982	0.251794
569.494525	0.251369
569.850013	0.254333
570.205445	0.252689
570.560823	0.254992
570.916145	0.257160
571.271412	0.255286
571.626625	0.256532
571.981782	0.257173
572.336884	0.258072
572.691931	0.257856
573.046923	0.259097
573.401860	0.260527
573.756743	0.261910
574.111570	0.260963
574.466342	0.261468
574.821059	0.260609
575.175722	0.263492
575.530330	0.263056
575.884882	0.263213
576.239380	0.265160
576.593823	0.266053
576.948211	0.265322
577.302544	0.268382
577.656823	0.268184
578.011047	0.268083
578.365216	0.268735
578.719330	0.270728
579.073389	0.270735
579.427394	0.271777
579.781344	0.273005
580.135239	0.274427
580.489080	0.274128
580.842866	0.276877
581.196597	0.277263
581.550273	0.275337
581.903895	0.276444
582.257463	0.274375
582.610975	0.277878
582.964434	0.277276
583.317837	0.279880
583.671186	0.280373
584.024481	0.280401
584.377721	0.282484
584.730906	0.283346
585.084037	0.282687
585.437113	0.284429
585.790135	0.283746
586.143103	0.286499
586.496016	0.287880
586.848874	0.285298
587.201679	0.286196
587.554428	0.289453
587.907124	0.287965
588.259765	0.288650
588.612352	0.289579
588.964884	0.293158
589.317362	0.292707
589.669786	0.292920
590.022155	0.291105
590.374470	0.290653
590.726731	0.292915
591.078937	0.297154
591.431090	0.293617
591.783188	0.297937
592.135232	0.298449
592.487222	0.298629
592.839157	0.296462
593.191038	0.298752
593.542866	0.300774
593.894639	0.303929
594.246358	0.302003
594.598022	0.301671
594.949633	0.305421
595.301190	0.306244
595.652692	0.305223
596.004141	0.301489
596.355535	0.309546
596.706876	0.309814
597.058162	0.312520
597.409395	0.309507
597.760573	0.307428
598.111698	0.310720
598.462768	0.311408
598.813785	0.312398
599.164748	0.313467
599.515657	0.313855
599.866511	0.317269
600.217312	0.312350
600.568060	0.318180
600.918753	0.314346
601.269392	0.314993
601.619978	0.318682
601.970510	0.316075
602.320988	0.315906
602.671412	0.313641
603.021783	0.316441
603.372100	0.317940
603.722363	0.317775
604.072572	0.318020
604.422728	0.317838
604.772830	0.320416
605.122878	0.319761
605.472872	0.320512
605.822813	0.318507
606.172701	0.321341
606.522534	0.318601
606.872314	0.318571
607.222041	0.319215
607.571714	0.317824
607.921333	0.319145
608.270899	0.318867
608.620411	0.315506
608.969870	0.319813
609.319276	0.319643
609.668627	0.319627
610.017926	0.318077
610.367171	0.316518
610.716362	0.317292
611.065500	0.317245
611.414585	0.316116
611.763616	0.316945
612.112594	0.317423
612.461518	0.316734
612.810389	0.314295
613.159207	0.316813
613.507971	0.318442
613.856682	0.314249
614.205340	0.315956
614.553945	0.313016
614.902496	0.316978
615.250994	0.314795
615.599439	0.315136
615.947830	0.314671
616.296169	0.315920
616.644454	0.315310
616.992686	0.315311
617.340864	0.313094
617.688990	0.316982
618.037063	0.313341
618.385082	0.314897
618.733048	0.312409
619.080961	0.314639
619.428821	0.314052
619.776628	0.313315
620.124382	0.315517
620.472083	0.315916
620.819731	0.315236
621.167326	0.319115
621.514868	0.318839
621.862357	0.323206
622.209793	0.322392
622.557176	0.324611
622.904506	0.325846
623.251783	0.327963
623.599007	0.330271
623.946179	0.329968
624.293297	0.332054
624.640363	0.335855
624.987376	0.336289
625.334336	0.338637
625.681243	0.340977
626.028097	0.341681
626.374899	0.342663
626.721647	0.342790
627.068343	0.346133
627.414987	0.347199
627.761577	0.349654
628.108115	0.347870
628.454600	0.352883
628.801032	0.350053
629.147412	0.352188
629.493739	0.352654
629.840014	0.355614
630.186236	0.352691
630.532405	0.358252
630.878521	0.356279
631.224585	0.358365
631.570597	0.362012
631.916556	0.360504
632.262462	0.360399
632.608316	0.362567
632.954117	0.363137
633.299866	0.364257
633.645562	0.364572
633.991206	0.369067
634.336797	0.371846
634.682336	0.374509
635.027823	0.375579
635.373257	0.376545
635.718639	0.380057
636.063968	0.378980
636.409245	0.384758
636.754470	0.385396
637.099642	0.387526
637.444762	0.390702
637.789829	0.390439
638.134845	0.393474
638.479808	0.394678
638.824719	0.393900
639.169577	0.398382
639.514383	0.397329
639.859137	0.401538
640.203839	0.401403
640.548489	0.401735
640.893086	0.403000
641.237632	0.404853
641.582125	0.403263
641.926566	0.405079
642.270955	0.404897
642.615292	0.405290
642.959576	0.404740
643.303809	0.404632
643.647990	0.404547
643.992118	0.404825
644.336195	0.408765
644.680219	0.406748
645.024192	0.407814
645.368112	0.400766
645.711981	0.400467
646.055797	0.395742
646.399562	0.397892
646.743274	0.389900
647.086935	0.387217
647.430544	0.387886
647.774101	0.386652
648.117606	0.385760
648.461059	0.386541
648.804460	0.388684
649.147810	0.393997
649.491108	0.396141
649.834354	0.397143
650.177548	0.402719
650.520690	0.407880
650.863781	0.409288
651.206820	0.408178
651.549807	0.413178
651.892742	0.417477
652.235626	0.416425
652.578458	0.418177
652.921238	0.423716
653.263967	0.421805
653.606644	0.425443
653.949269	0.425366
654.291843	0.429138
654.634365	0.426070
654.976836	0.428691
655.319255	0.429082
655.661622	0.430760
656.003938	0.430780
656.346203	0.433921
656.688416	0.431619
657.030577	0.435298
657.372687	0.436849
657.714746	0.437439
658.056753	0.435239
658.398708	0.438702
658.740612	0.439341
659.082465	0.435911
659.424266	0.436444
659.766016	0.435975
660.107715	0.438012
660.449362	0.437423
660.790958	0.438133
661.132503	0.438798
661.473996	0.436520
661.815438	0.436876
662.156829	0.437267
662.498168	0.437993
662.839456	0.439420
663.180693	0.437343
663.521879	0.436665
663.863013	0.437864
664.204097	0.436548
664.545129	0.433714
664.886110	0.433981
665.227040	0.431180
665.567918	0.433677
665.908746	0.431656
666.249522	0.431584
666.590248	0.433099
666.930922	0.430376
667.271545	0.429382
667.612118	0.430128
667.952639	0.430972
668.293109	0.430091
668.633528	0.432719
668.973896	0.432734
669.314213	0.433026
669.654480	0.433969
669.994695	0.435539
670.334859	0.436059
670.674973	0.436341
671.015035	0.436363
671.355047	0.436158
671.695008	0.437240
672.034918	0.438862
672.374777	0.438561
672.714585	0.440013
673.054342	0.438974
673.394049	0.439859
673.733705	0.437141
674.073310	0.438235
674.412864	0.441607
674.752368	0.442168
675.091820	0.441855
675.431223	0.446520
675.770574	0.446273
676.109875	0.449477
676.449125	0.449667
676.788324	0.451375
677.127473	0.457004
677.466571	0.456916
677.805619	0.458418
678.144616	0.460167
678.483562	0.461203
678.822458	0.463794
679.161303	0.465187
679.500098	0.464478
679.838842	0.466892
680.177535	0.465710
680.516179	0.465229
680.854771	0.463918
681.193314	0.457796
681.531805	0.448834
681.870247	0.437315
682.208638	0.429744
682.546978	0.428936
682.885268	0.430442
683.223508	0.436707
683.561697	0.440545
683.899836	0.443259
684.237925	0.446308
684.575963	0.448666
684.913951	0.451860
685.251889	0.448138
685.589776	0.449921
685.927614	0.452455
686.265401	0.446785
686.603137	0.447847
686.940824	0.441712
687.278460	0.440170
687.616046	0.439341
687.953582	0.434647
688.291068	0.435587
688.628504	0.431513
688.965889	0.433954
689.303224	0.438346
689.640510	0.441873
689.977745	0.447304
690.314930	0.455515
690.652065	0.459804
690.989150	0.467300
691.326185	0.473580
691.663170	0.478359
692.000105	0.486070
692.336990	0.492328
692.673825	0.495199
693.010610	0.501970
693.347345	0.507284
693.684030	0.509022
694.020665	0.513393
694.357251	0.522132
694.693786	0.522059
695.030272	0.526410
695.366707	0.530288
695.703093	0.532916
696.039429	0.530645
696.375716	0.532154
696.711952	0.535288
697.048139	0.537020
697.384276	0.538972
697.720363	0.536984
698.056400	0.536182
698.392388	0.542209
698.728326	0.544909
699.064214	0.548100
699.400053	0.547840
699.735842	0.551988
700.071581	0.555193
700.407270	0.557656
700.742910	0.560017
701.078501	0.566114
701.414042	0.566829
701.749533	0.570361
702.084974	0.579093
702.420366	0.571499
702.755709	0.579579
703.091002	0.586124
703.426246	0.579708
703.761440	0.585984
704.096584	0.591240
704.431679	0.587747
704.766725	0.590163
705.101721	0.591545
705.436668	0.587616
705.771565	0.594973
706.106413	0.590612
706.441212	0.587313
706.775961	0.584683
707.110661	0.588568
707.445311	0.584454
707.779913	0.582313
708.114465	0.580223
708.448967	0.576989
708.783421	0.568735
709.117825	0.563675
709.452180	0.563994
709.786485	0.557713
710.120742	0.546577
710.454949	0.549582
710.789107	0.541975
711.123216	0.532920
711.457275	0.534739
711.791286	0.525359
712.125247	0.524826
712.459159	0.535338
712.793023	0.527728
713.126837	0.531727
713.460602	0.532061
713.794318	0.541550
714.127985	0.540231
714.461602	0.550548
714.795171	0.553149
715.128691	0.561301
715.462162	0.568627
715.795584	0.574027
716.128957	0.577510
716.462281	0.583888
716.795556	0.587118
717.128782	0.592293
717.461960	0.601628
717.795088	0.600177
718.128167	0.606461
718.461198	0.614738
718.794180	0.615983
719.127113	0.617991
719.459997	0.622041
719.792833	0.628311
720.125619	0.629477
720.458357	0.635592
720.791046	0.635024
721.123686	0.638710
721.456278	0.645763
721.788821	0.642563
722.121315	0.646520
722.453761	0.650367
722.786158	0.648802
723.118506	0.645326
723.450805	0.653695
723.783056	0.648886
724.115259	0.646708
724.447412	0.645663
724.779518	0.647100
725.111574	0.646139
725.443582	0.641642
725.775542	0.643414
726.107453	0.635924
726.439315	0.635695
726.771129	0.634306
727.102895	0.628014
727.434612	0.620903
727.766281	0.619076
728.097901	0.617965
728.429473	0.617643
728.760996	0.616336
729.092471	0.616092
729.423897	0.619737
729.755276	0.619054
730.086606	0.619082
730.417887	0.613236
730.749120	0.604446
731.080305	0.595253
731.411442	0.591993
731.742530	0.596729
732.073570	0.596223
732.404562	0.588309
732.735506	0.589176
733.066401	0.594414
733.397249	0.603216
733.728048	0.614415
734.058798	0.626817
734.389501	0.637928
734.720156	0.647173
735.050762	0.655179
735.381320	0.655868
735.711831	0.665981
736.042293	0.670458
736.372707	0.666151
736.703073	0.670960
737.033391	0.673575
737.363661	0.669959
737.693883	0.665178
738.024056	0.663936
738.354182	0.665054
738.684260	0.654122
739.014290	0.650110
739.344272	0.650666
739.674207	0.643521
740.004093	0.643861
740.333931	0.644266
740.663722	0.644471
740.993464	0.644482
741.323159	0.648889
741.652806	0.653557
741.982405	0.657797
742.311956	0.662070
742.641460	0.664993
742.970915	0.668006
743.300323	0.676256
743.629683	0.682864
743.958996	0.684774
744.288260	0.688986
744.617477	0.694823
744.946647	0.696303
745.275768	0.701449
745.604842	0.702150
745.933869	0.711817
746.262847	0.712539
746.591778	0.705503
746.920662	0.712497
747.249498	0.718008
747.578286	0.709545
747.907027	0.704966
748.235720	0.706578
748.564365	0.701259
748.892963	0.700862
749.221514	0.704817
749.550017	0.709557
749.878473	0.708467
750.206881	0.714749
750.535242	0.716901
750.863555	0.716207
751.191821	0.717976
751.520039	0.720981
751.848210	0.725550
752.176334	0.718001
752.504411	0.717272
752.832440	0.725536
753.160421	0.728679
753.488356	0.726842
753.816243	0.724307
754.144082	0.733278
754.471875	0.736813
754.799620	0.731605
755.127318	0.733559
755.454969	0.733879
755.782572	0.732256
756.110129	0.737686
756.437638	0.738952
756.765100	0.736661
757.092515	0.734928
757.419882	0.733505
757.747203	0.738871
758.074477	0.737766
758.401703	0.735143
758.728882	0.730091
759.056014	0.730338
759.383099	0.728649
759.710138	0.729530
760.037129	0.726639
760.364073	0.720367
760.690970	0.722298
761.017820	0.728453
761.344623	0.723498
761.671379	0.714657
761.998088	0.702561
762.324751	0.679993
762.651366	0.638987
762.977935	0.572814
763.304456	0.520584
763.630931	0.510932
763.957359	0.549913
764.283740	0.594741
764.610074	0.621458
764.936362	0.652505
765.262602	0.679019
765.588796	0.699734
765.914943	0.717611
766.241044	0.735374
766.567097	0.742373
766.893104	0.752335
767.219064	0.758190
767.544978	0.765299
767.870845	0.778406
768.196665	0.781523
768.522438	0.779679
768.848165	0.781137
769.173846	0.789790
769.499479	0.794682
769.825066	0.797914
770.150607	0.803474
770.476101	0.797962
770.801548	0.799629
771.126949	0.810737
771.452303	0.814253
771.777611	0.813616
772.102872	0.812545
772.428087	0.818529
772.753256	0.821070
773.078378	0.823245
773.403453	0.832148
773.728482	0.836914
774.053465	0.829444
774.378401	0.834173
774.703291	0.842157
775.028135	0.841894
775.352932	0.842962
775.677683	0.847113
776.002388	0.845924
776.327046	0.845752
776.651658	0.849409
776.976224	0.852376
777.300743	0.852970
777.625216	0.855109
777.949643	0.857268
778.274024	0.857107
778.598359	0.858339
778.922647	0.856397
779.246889	0.857909
779.571086	0.861812
779.895236	0.864518
780.219339	0.860249
780.543397	0.857829
780.867409	0.856276
781.191374	0.859759
781.515294	0.860307
781.839167	0.859511
782.162995	0.862740
782.486776	0.859752
782.810511	0.859964
783.134201	0.864513
783.457844	0.861932
783.781441	0.864085
784.104993	0.870967
784.428498	0.870854
784.751958	0.866253
785.075372	0.869065
785.398739	0.872386
785.722061	0.868372
786.045337	0.865340
786.368568	0.870647
786.691752	0.871933
787.014891	0.857451
787.337983	0.848710
787.661030	0.841014
787.984031	0.824382
788.306987	0.810971
788.629897	0.813783
788.952760	0.817184
789.275579	0.821113
789.598351	0.836635
789.921078	0.849475
790.243759	0.852130
790.566395	0.856491
790.888984	0.864510
791.211529	0.868814
791.534027	0.871916
791.856480	0.873492
792.178888	0.880141
792.501249	0.881880
792.823566	0.883303
793.145836	0.882658
793.468062	0.886218
793.790241	0.884901
794.112375	0.883132
794.434464	0.877913
794.756507	0.877578
795.078505	0.878224
795.400457	0.872412
795.722364	0.861050
796.044226	0.852896
796.366042	0.851752
796.687812	0.854484
797.009538	0.852284
797.331218	0.853784
797.652852	0.859491
797.974442	0.863757
798.295986	0.864468
798.617484	0.867470
798.938938	0.871472
799.260346	0.875427
799.581709	0.878185
799.903026	0.879149
800.224299	0.881058
800.545526	0.885738
800.866708	0.888404
801.187845	0.892302
801.508936	0.892813
801.829983	0.889828
802.150984	0.892986
802.471940	0.898405
802.792851	0.896833
803.113717	0.898445
803.434538	0.896274
803.755314	0.898363
804.076045	0.900711
804.396731	0.901088
804.717372	0.900213
805.037967	0.902132
805.358518	0.899635
805.679024	0.896717
805.999485	0.897073
806.319901	0.897058
806.640272	0.898859
806.960598	0.896595
807.280879	0.894115
807.601115	0.892160
807.921306	0.895136
808.241453	0.897364
808.561554	0.893957
808.881611	0.895134
809.201623	0.895459
809.521590	0.895803
809.841513	0.897589
810.161390	0.895435
810.481223	0.897972
810.801011	0.901220
811.120755	0.902876
811.440453	0.901503
811.760107	0.900502
812.079716	0.900291
812.399281	0.903912
812.718801	0.906709
813.038276	0.907223
813.357707	0.907261
813.677093	0.904291
813.996434	0.906674
814.315731	0.908046
814.634983	0.909214
814.954191	0.908157
815.273354	0.904952
815.592473	0.901897
815.911547	0.901552
816.230577	0.898524
816.549562	0.896471
816.868502	0.897735
817.187399	0.893503
817.506250	0.888756
817.825058	0.890587
818.143821	0.886301
818.462539	0.881275
818.781213	0.872968
819.099843	0.863366
819.418429	0.847179
819.736970	0.829519
820.055466	0.811450
820.373919	0.784755
820.692327	0.753288
821.010691	0.718773
821.329011	0.641693
821.647286	0.527395
821.965517	0.414263
822.283704	0.371388
822.601847	0.373027
822.919945	0.408715
823.237999	0.441867
823.556010	0.487561
823.873976	0.543871
824.191897	0.593659
824.509775	0.635918
824.827609	0.681742
825.145398	0.704059
825.463144	0.706369
825.780845	0.689106
826.098502	0.670830
826.416116	0.625149
826.733685	0.582464
827.051210	0.573051
827.368692	0.588028
827.686129	0.624390
828.003522	0.678270
828.320872	0.723793
828.638177	0.767924
828.955439	0.800662
829.272656	0.822408
829.589830	0.839437
829.906960	0.855098
830.224046	0.867479
830.541088	0.878381
830.858086	0.881543
831.175041	0.887644
831.491952	0.886865
831.808819	0.883527
832.125642	0.877536
832.442421	0.862836
832.759157	0.841103
833.075849	0.795960
833.392497	0.732618
833.709101	0.690659
834.025662	0.701163
834.342179	0.731923
834.658653	0.770811
834.975083	0.806674
835.291469	0.833222
835.607811	0.854849
835.924110	0.870872
836.240366	0.887032
836.556578	0.902167
836.872746	0.908764
837.188871	0.915695
837.504952	0.919846
837.820990	0.924243
838.136984	0.926877
838.452935	0.930038
838.768842	0.931959
839.084706	0.924508
839.400526	0.899940
839.716303	0.859661
840.032037	0.836787
840.347727	0.841606
840.663373	0.860139
840.978977	0.880722
841.294537	0.901557
841.610054	0.917601
841.925527	0.925982
842.240957	0.932106
842.556344	0.939486
842.871687	0.946176
843.186987	0.950606
843.502244	0.950803
843.817458	0.952108
844.132629	0.956755
844.447756	0.960398
844.762840	0.960989
845.077881	0.959773
845.392879	0.959696
845.707833	0.962145
846.022745	0.964754
846.337613	0.963960
846.652438	0.965893
846.967221	0.964816
847.281960	0.964891
847.596656	0.966798
847.911309	0.966242
848.225919	0.966744
848.540485	0.967863
848.855009	0.968980
849.169490	0.967861
849.483928	0.969470
849.798323	0.970039
850.112675	0.969139
850.426984	0.968604
850.741251	0.969244
851.055474	0.969973
851.369654	0.967287
851.683792	0.969163
851.997887	0.969342
852.311938	0.971468
852.625947	0.970714
852.939914	0.969279
853.253837	0.968655
853.567718	0.971189
853.881555	0.970080
854.195350	0.967683
854.509103	0.968448
854.822812	0.969599
855.136479	0.969594
855.450103	0.968757
855.763685	0.968337
856.077224	0.969753
856.390720	0.970859
856.704173	0.969890
857.017584	0.969311
857.330953	0.966226
857.644278	0.968150
857.957561	0.968810
858.270802	0.969062
858.584000	0.967624
858.897155	0.967226
859.210268	0.967937
859.523339	0.968349
859.836367	0.969618
860.149352	0.970947
860.462295	0.968359
860.775195	0.970525
861.088054	0.968678
861.400869	0.969720
861.713642	0.970625
862.026373	0.970555
862.339062	0.971667
862.651708	0.967678
862.964312	0.968904
863.276873	0.970099
863.589392	0.967853
863.901869	0.967356
864.214303	0.965099
864.526696	0.963951
864.839045	0.964057
865.151353	0.961384
865.463619	0.962857
865.775842	0.962375
866.088023	0.961645
866.400162	0.962465
866.712258	0.962551
867.024313	0.963175
867.336325	0.964015
867.648296	0.963670
867.960224	0.962137
868.272110	0.963293
868.583954	0.963618
868.895755	0.963948
869.207515	0.961856
869.519233	0.959682
869.830909	0.961492
870.142542	0.963885
870.454134	0.962574
870.765684	0.960680
871.077191	0.957111
871.388657	0.959846
871.700081	0.958074
872.011463	0.958088
872.322803	0.958361
872.634101	0.956801
872.945357	0.955577
873.256571	0.954103
873.567744	0.953987
873.878874	0.954621
874.189963	0.951917
874.501010	0.951071
874.812015	0.950274
875.122979	0.952299
875.433900	0.953675
875.744780	0.954050
876.055618	0.951849
876.366415	0.950568
876.677169	0.949833
876.987882	0.952193
877.298554	0.951018
877.609183	0.948331
877.919771	0.945685
878.230317	0.943684
878.540822	0.941004
878.851285	0.934490
879.161707	0.927419
879.472087	0.916157
879.782425	0.900339
880.092722	0.866521
880.402977	0.815666
880.713191	0.755281
881.023363	0.697436
881.333494	0.663113
881.643583	0.636012
881.953631	0.635263
882.263637	0.663966
882.573602	0.703136
882.883526	0.728619
883.193408	0.751601
883.503248	0.772994
883.813048	0.801346
884.122806	0.830166
884.432522	0.853039
884.742197	0.871953
885.051831	0.882382
885.361424	0.892448
885.670975	0.904044
885.980485	0.915106
886.289954	0.919702
886.599382	0.925436
886.908768	0.929471
887.218113	0.934919
887.527417	0.940269
887.836680	0.941677
888.145901	0.943413
888.455082	0.945692
888.764221	0.951336
889.073319	0.952819
889.382376	0.953351
889.691392	0.953900
890.000366	0.953000
890.309300	0.954336
890.618193	0.954131
890.927044	0.951699
891.235855	0.951918
891.544625	0.952551
891.853353	0.952687
892.162041	0.950274
892.470687	0.943106
892.779293	0.938048
893.087858	0.934817
893.396381	0.927490
893.704864	0.914826
894.013306	0.889778
894.321707	0.864457
894.630068	0.849892
894.938387	0.844992
895.246665	0.846336
895.554903	0.858424
895.863100	0.871104
896.171256	0.888891
896.479371	0.907558
896.787446	0.921499
897.095480	0.925953
897.403473	0.929062
897.711425	0.932742
898.019336	0.941476
898.327207	0.943117
898.635038	0.945586
898.942827	0.945333
899.250576	0.949181
899.558284	0.953241
899.865952	0.955333
900.173579	0.955651
900.481165	0.956364
900.788711	0.960184
901.096216	0.961968
901.403681	0.960708
901.711105	0.963342
902.018489	0.963472
902.325832	0.963157
902.633135	0.962561
902.940397	0.955676
903.247619	0.945017
903.554800	0.918501
903.861941	0.879375
904.169041	0.846838
904.476101	0.829996
904.783121	0.829178
905.090100	0.845257
905.397039	0.866515
905.703938	0.887943
906.010796	0.906521
906.317614	0.924106
906.624391	0.936497
906.931129	0.944281
907.237826	0.952970
907.544483	0.959737
907.851099	0.962335
908.157675	0.967400
908.464211	0.970626
908.770707	0.973320
909.077163	0.974720
909.383578	0.974380
909.689954	0.975240
909.996289	0.975530
910.302584	0.978006
910.608839	0.978776
910.915054	0.978554
911.221229	0.977976
911.527363	0.977038
911.833458	0.977064
912.139513	0.976605
912.445527	0.975611
912.751502	0.973327
913.057436	0.973926
913.363331	0.970520
913.669186	0.966754
913.975000	0.962252
914.280775	0.955827
914.586510	0.950233
914.892205	0.936497
915.197859	0.916269
915.503475	0.888487
915.809050	0.869573
916.114585	0.864714
916.420081	0.861627
916.725536	0.858829
917.030952	0.865835
917.336328	0.878847
917.641665	0.893836
917.946961	0.908925
918.252218	0.921269
918.557435	0.928795
918.862612	0.937359
919.167750	0.943533
919.472848	0.947562
919.777906	0.954803
920.082925	0.958858
920.387904	0.963255
920.692843	0.963317
920.997743	0.964161
921.302603	0.967814
921.607423	0.969768
921.912204	0.971148
922.216946	0.972886
922.521647	0.973674
922.826310	0.975464
923.130932	0.976251
923.435516	0.978320
923.740059	0.979281
924.044564	0.979302
924.349028	0.980437
924.653454	0.982153
924.957840	0.985474
925.262186	0.984310
925.566493	0.984206
925.870761	0.984676
926.174989	0.986420
926.479178	0.987450
926.783328	0.988958
927.087438	0.987571
927.391509	0.987493
927.695541	0.989075
927.999533	0.989745
928.303486	0.988879
928.607400	0.991083
928.911275	0.989236
929.215110	0.990400
929.518906	0.989622
929.822663	0.990196
930.126381	0.991539
930.430060	0.989471
930.733699	0.989998
931.037299	0.989109
931.340861	0.991480
931.644383	0.989166
931.947866	0.989512
932.251309	0.990399
932.554714	0.989324
932.858080	0.990390
933.161407	0.990815
933.464694	0.990969
933.767943	0.989932
934.071153	0.991507
934.374323	0.991608
934.677455	0.991234
934.980548	0.991759
935.283602	0.990496
935.586617	0.990788
935.889593	0.990695
936.192530	0.990097
936.495428	0.990216
936.798287	0.989884
937.101108	0.989387
937.403890	0.989561
937.706632	0.988809
938.009336	0.987620
938.312002	0.986109
938.614628	0.984426
938.917216	0.982523
939.219765	0.981308
939.522275	0.983528
939.824747	0.982503
940.127179	0.984610
940.429573	0.984254
940.731929	0.984120
941.034246	0.984619
941.336524	0.985334
941.638763	0.986503
941.940964	0.986414
942.243126	0.986696
942.545250	0.986202
942.847335	0.988356
943.149381	0.988312
943.451389	0.987311
943.753359	0.988206
944.055290	0.990164
944.357182	0.989628
944.659036	0.987894
944.960851	0.989399
945.262628	0.991159
945.564367	0.990479
945.866067	0.989613
946.167729	0.990858
946.469352	0.990001
946.770937	0.988667
947.072484	0.990090
947.373992	0.990686
947.675462	0.989594
947.976893	0.989282
948.278286	0.989891
948.579641	0.992488
948.880958	0.991122
949.182236	0.990208
949.483476	0.990082
949.784678	0.991611
950.085841	0.990641
950.386967	0.991038
950.688054	0.990298
950.989103	0.990550
951.290114	0.990221
951.591087	0.988512
951.892021	0.989333
952.192917	0.988896
952.493776	0.988052
952.794596	0.989542
953.095378	0.987449
953.396122	0.986710
953.696828	0.988176
953.997496	0.989985
954.298126	0.990220
954.598718	0.990626
954.899272	0.990885
955.199788	0.989575
955.500266	0.991479
955.800706	0.992070
956.101108	0.992711
956.401472	0.993169
956.701798	0.993426
957.002087	0.992434
957.302337	0.993535
957.602550	0.995467
957.902724	0.994399
958.202861	0.994980
958.502960	0.995052
958.803022	0.992747
959.103045	0.996026
959.403031	0.995672
959.702979	0.994718
960.002889	0.996063
960.302762	0.994521
960.602596	0.995485
960.902393	0.994754
961.202153	0.996440
961.501875	0.995866
961.801559	0.994292
962.101205	0.995581
962.400814	0.996634
962.700385	0.996956
962.999918	0.996160
963.299414	0.995489
963.598873	0.994800
963.898293	0.996097
964.197677	0.995600
964.497022	0.996139
964.796331	0.997658
965.095601	0.996562
965.394835	0.995885
965.694030	0.996376
965.993189	0.997308
966.292309	0.995932
966.591393	0.996652
966.890439	0.996904
967.189447	0.996573
967.488419	0.996422
967.787353	0.996545
968.086249	0.996305
968.385108	0.996351
968.683930	0.997580
968.982714	0.996782
969.281462	0.997211
969.580172	0.996745
969.878844	0.997035
970.177480	0.996583
970.476078	0.997261
970.774639	0.996797
971.073162	0.997490
971.371649	0.995777
971.670098	0.995281
971.968510	0.997822
972.266885	0.994386
972.565223	0.996111
972.863524	0.996026
973.161788	0.995011
973.460014	0.997853
973.758204	0.996062
974.056356	0.995150
974.354471	0.993877
974.652550	0.996329
974.950591	0.995872
975.248595	0.996913
975.546563	0.995719
975.844493	0.996918
976.142386	0.997103
976.440243	0.996515
976.738062	0.996912
977.035845	0.996288
977.333590	0.996365
977.631299	0.996401
977.928971	0.996602
978.226606	0.997042
978.524204	0.996647
978.821765	0.997697
979.119290	0.996624
979.416777	0.995457
979.714228	0.997134
980.011642	0.995294
980.309020	0.996824
980.606360	0.997162
980.903664	0.997705
981.200931	0.995762
981.498162	0.995585
981.795356	0.994823
982.092513	0.993524
982.389633	0.994334
982.686717	0.992018
982.983764	0.991267
983.280775	0.990134
983.577749	0.990725
983.874686	0.991912
984.171587	0.992600
984.468451	0.993636
984.765279	0.994883
985.062070	0.993378
985.358824	0.994735
985.655543	0.994829
985.952224	0.995502
986.248869	0.997475
986.545478	0.995312
986.842050	0.998699
987.138586	0.995284
987.435086	0.997738
987.731549	0.999371
988.027975	0.996671
988.324366	0.998031
988.620719	0.997041
988.917037	0.996559
989.213318	0.998336
989.509563	0.997726
989.805772	0.998024
990.101944	0.998809
990.398080	0.997254
990.694180	0.997652
990.990244	0.997138
991.286271	0.997604
991.582262	0.998611
991.878217	0.996372
992.174136	0.997748
992.470019	0.998716
992.765865	0.996771
993.061676	0.997688
993.357450	0.997297
993.653188	0.996269
993.948890	0.996375
994.244556	0.997514
994.540186	0.997175
994.835780	0.995678
995.131337	0.997114
995.426859	0.996253
995.722345	0.997192
996.017795	0.996703
996.313208	0.995567
996.608586	0.995952
996.903928	0.997595
997.199234	0.995771
997.494504	0.995453
997.789738	0.996103
998.084936	0.995775
998.380099	0.997927
998.675225	0.996827
998.970316	0.998076
999.265371	0.997830
999.560390	0.999167
999.855373	0.998481
1000.150320	0.997120
1000.445232	0.997313
1000.740108	0.997328
1001.034948	0.997913
1001.329752	0.997925
1001.624521	0.998762
1001.919254	0.997630
1002.213951	0.998782
1002.508613	0.996076
1002.803239	0.999504
1003.097829	0.997439
1003.392384	0.999001
1003.686903	0.998382
1003.981386	0.998834
1004.275834	0.998342
1004.570246	0.997888
1004.864623	0.998368
1005.158964	0.999104
1005.453270	0.997504
1005.747540	0.997333
1006.041775	0.998032
1006.335974	0.998669
1006.630138	0.998902
1006.924266	0.998786
1007.218359	0.999878
1007.512416	0.999407
1007.806438	0.999156
1008.100425	0.998536
1008.394376	0.997883
1008.688292	0.998471
1008.982172	1.001324
1009.276017	0.999013
1009.569827	0.997150
1009.863602	0.999551
1010.157341	0.998714
1010.451045	0.998983
1010.744714	0.997746
1011.038347	0.998250
1011.331945	0.998393
1011.625508	0.997246
1011.919036	0.998838
1012.212528	0.998049
1012.505986	0.998822
1012.799408	0.998027
1013.092795	0.998713
1013.386147	0.998662
1013.679464	0.999762
1013.972745	0.998177
1014.265992	0.997512
1014.559204	0.998372
1014.852380	0.998396
1015.145521	0.999153
1015.438628	0.998251
1015.731699	0.998348
1016.024736	0.999277
1016.317737	0.998111
1016.610703	0.997275
1016.903635	0.999252
1017.196531	0.998890
1017.489393	0.999557
1017.782219	0.998275
1018.075011	0.998363
1018.367768	0.998741
1018.660490	0.999144
1018.953177	0.999144
1019.245829	0.999144
