Dividing Wavelength (nm)	Counts (n)	Blue Motor Position (mm): 0.000000	Red Motor Position (mm): 24.200000	
326.493990	1.001332
326.888308	1.001332
327.282561	1.001332
327.676750	1.000706
328.070874	0.999138
328.464933	1.000081
328.858929	0.999678
329.252859	0.999587
329.646726	0.998712
330.040528	1.000716
330.434265	1.000105
330.827938	1.000505
331.221547	1.000440
331.615091	1.000453
332.008571	1.000052
332.401986	0.999388
332.795338	0.999465
333.188625	0.999320
333.581847	1.000356
333.975006	0.998423
334.368100	1.000204
334.761129	0.998979
335.154095	1.000368
335.546996	0.997956
335.939833	0.994135
336.332606	0.994536
336.725315	0.994621
337.117960	0.994400
337.510540	0.994690
337.903056	0.995161
338.295508	0.993560
338.687896	0.995001
339.080220	0.995145
339.472480	0.993537
339.864676	0.994450
340.256807	0.994495
340.648875	0.995864
341.040879	0.994235
341.432818	0.994744
341.824694	0.994652
342.216506	0.994769
342.608253	0.994831
342.999937	0.994417
343.391557	0.994790
343.783113	0.995422
344.174605	0.993909
344.566033	0.995924
344.957397	0.993510
345.348697	0.993812
345.739934	0.994682
346.131106	0.994205
346.522215	0.994129
346.913260	0.993856
347.304241	0.995604
347.695159	0.993629
348.086012	0.993431
348.476802	0.994702
348.867528	0.994822
349.258191	0.993464
349.648789	0.995204
350.039324	0.994661
350.429796	0.995403
350.820203	0.994757
351.210548	0.994153
351.600828	0.994405
351.991045	0.993239
352.381198	0.994076
352.771288	0.993986
353.161314	0.994145
353.551276	0.995903
353.941175	0.994077
354.331010	0.994281
354.720782	0.993995
355.110490	0.994324
355.500135	0.994958
355.889717	0.993073
356.279235	0.995238
356.668689	0.994040
357.058080	0.994077
357.447408	0.995955
357.836672	0.994071
358.225873	0.995207
358.615010	0.994632
359.004084	0.995732
359.393095	0.994238
359.782043	0.995040
360.170927	0.995489
360.559748	0.995175
360.948505	0.993178
361.337199	0.994588
361.725830	0.994736
362.114398	0.994711
362.502903	0.995080
362.891344	0.995446
363.279722	0.994363
363.668037	0.995552
364.056289	0.994669
364.444478	0.995673
364.832603	0.995452
365.220665	0.995194
365.608665	0.995480
365.996601	0.993381
366.384474	0.994961
366.772284	0.994382
367.160031	0.993427
367.547715	0.993955
367.935336	0.994561
368.322893	0.994566
368.710388	0.993354
369.097820	0.994381
369.485189	0.992903
369.872495	0.994395
370.259738	0.993798
370.646918	0.995366
371.034035	0.996343
371.421090	0.995890
371.808081	0.993445
372.195010	0.995059
372.581875	0.994355
372.968678	0.994514
373.355418	0.994839
373.742096	0.995453
374.128710	0.996398
374.515262	0.994787
374.901751	0.996091
375.288177	0.995790
375.674540	0.995977
376.060841	0.995279
376.447079	0.994911
376.833254	0.995599
377.219367	0.995101
377.605417	0.994807
377.991404	0.994786
378.377329	0.995078
378.763191	0.994822
379.148991	0.995567
379.534727	0.996029
379.920402	0.995349
380.306013	0.995692
380.691563	0.996211
381.077049	0.995641
381.462474	0.995631
381.847835	0.995543
382.233134	0.995405
382.618371	0.995663
383.003545	0.995118
383.388657	0.995684
383.773706	0.996497
384.158693	0.996364
384.543618	0.995509
384.928480	0.996888
385.313280	0.996472
385.698017	0.996090
386.082692	0.997156
386.467305	0.995772
386.851856	0.996057
387.236344	0.995689
387.620770	0.995934
388.005133	0.996378
388.389435	0.997269
388.773674	0.995308
389.157851	0.996102
389.541965	0.996054
389.926018	0.995805
390.310008	0.997379
390.693936	0.996234
391.077802	0.996840
391.461606	0.996595
391.845348	0.996758
392.229027	0.997673
392.612645	0.996589
392.996200	0.996571
393.379694	0.996341
393.763125	0.997358
394.146494	0.997261
394.529801	0.995866
394.913047	0.996149
395.296230	0.996762
395.679351	0.996906
396.062410	0.996440
396.445408	0.996911
396.828343	0.996834
397.211217	0.996386
397.594028	0.996164
397.976778	0.996184
398.359466	0.995954
398.742092	0.996389
399.124656	0.996051
399.507158	0.996545
399.889598	0.996490
400.271977	0.996393
400.654294	0.996899
401.036549	0.997272
401.418742	0.996715
401.800874	0.996550
402.182944	0.997678
402.564952	0.995895
402.946898	0.996886
403.328783	0.996868
403.710606	0.997237
404.092367	0.997274
404.474067	0.997255
404.855705	0.996134
405.237282	0.996795
405.618797	0.996586
406.000250	0.995580
406.381642	0.996581
406.762972	0.996513
407.144240	0.997838
407.525447	0.997596
407.906593	0.996833
408.287677	0.997516
408.668700	0.997379
409.049661	0.995972
409.430560	0.996063
409.811399	0.996115
410.192176	0.996588
410.572891	0.995847
410.953545	0.996859
411.334138	0.996099
411.714669	0.996346
412.095139	0.996357
412.475547	0.997158
412.855894	0.996149
413.236180	0.997032
413.616405	0.996717
413.996568	0.997412
414.376670	0.996683
414.756711	0.996254
415.136691	0.996604
415.516609	0.997473
415.896466	0.996862
416.276262	0.995747
416.655997	0.997198
417.035670	0.995891
417.415283	0.997785
417.794834	0.996403
418.174324	0.996925
418.553753	0.997221
418.933121	0.995722
419.312428	0.996554
419.691674	0.996086
420.070859	0.997223
420.449983	0.996196
420.829045	0.995925
421.208047	0.996492
421.586988	0.997595
421.965867	0.995851
422.344686	0.996911
422.723444	0.996043
423.102141	0.996465
423.480777	0.996910
423.859352	0.996359
424.237866	0.995823
424.616319	0.995909
424.994712	0.996025
425.373044	0.996308
425.751314	0.996044
426.129524	0.995639
426.507673	0.996240
426.885762	0.996265
427.263789	0.995699
427.641756	0.994874
428.019662	0.994665
428.397508	0.993886
428.775292	0.993416
429.153016	0.993083
429.530679	0.993108
429.908282	0.993386
430.285824	0.991981
430.663305	0.990693
431.040726	0.989997
431.418086	0.989927
431.795385	0.988638
432.172624	0.986643
432.549802	0.986096
432.926920	0.985123
433.303977	0.982786
433.680974	0.982628
434.057910	0.978935
434.434786	0.978018
434.811601	0.974973
435.188355	0.972199
435.565050	0.970769
435.941683	0.969238
436.318257	0.966744
436.694770	0.962794
437.071222	0.961199
437.447614	0.958305
437.823946	0.955682
438.200218	0.951951
438.576429	0.949951
438.952580	0.945146
439.328670	0.941232
439.704700	0.938052
440.080670	0.934232
440.456580	0.927354
440.832429	0.924289
441.208218	0.922605
441.583947	0.915355
441.959616	0.910385
442.335224	0.907100
442.710773	0.900975
443.086261	0.894214
443.461689	0.890847
443.837057	0.883338
444.212365	0.875475
444.587612	0.871020
444.962800	0.863436
445.337927	0.857147
445.712995	0.856817
446.088002	0.841254
446.462949	0.836927
446.837837	0.831122
447.212664	0.822326
447.587431	0.810605
447.962139	0.792830
448.336786	0.771546
448.711374	0.768204
449.085901	0.776100
449.460369	0.769066
449.834776	0.762109
450.209124	0.745588
450.583412	0.732642
450.957640	0.723856
451.331808	0.718961
451.705917	0.720684
452.079965	0.714322
452.453954	0.700542
452.827883	0.695731
453.201752	0.685650
453.575562	0.683214
453.949311	0.667969
454.323001	0.664921
454.696632	0.653862
455.070202	0.641013
455.443713	0.628884
455.817164	0.617680
456.190556	0.606310
456.563888	0.595999
456.937160	0.587508
457.310373	0.590070
457.683526	0.580275
458.056619	0.576201
458.429653	0.569176
458.802628	0.563956
459.175542	0.553375
459.548398	0.533273
459.921194	0.521579
460.293930	0.515689
460.666607	0.492195
461.039224	0.478133
461.411782	0.468417
461.784280	0.459870
462.156719	0.455394
462.529099	0.451113
462.901419	0.457186
463.273680	0.453902
463.645882	0.447800
464.018024	0.446108
464.390106	0.434895
464.762130	0.417507
465.134094	0.399181
465.505999	0.371384
465.877845	0.342516
466.249631	0.325784
466.621358	0.324465
466.993026	0.329721
467.364634	0.329435
467.736184	0.332587
468.107674	0.336147
468.479105	0.330762
468.850477	0.334028
469.221790	0.336038
469.593043	0.341859
469.964238	0.342144
470.335373	0.338835
470.706449	0.334015
471.077467	0.332823
471.448425	0.294582
471.819324	0.269221
472.190164	0.266147
472.560945	0.291223
472.931667	0.309925
473.302330	0.311839
473.672934	0.321674
474.043479	0.308773
474.413965	0.308680
474.784393	0.310932
475.154761	0.304473
475.525070	0.300294
475.895321	0.305111
476.265513	0.298348
476.635645	0.292522
477.005719	0.291605
477.375734	0.287407
477.745691	0.280118
478.115588	0.275442
478.485427	0.268823
478.855207	0.255297
479.224928	0.237555
479.594591	0.225363
479.964194	0.228021
480.333739	0.228864
480.703226	0.229687
481.072653	0.227773
481.442022	0.223491
481.811333	0.219554
482.180584	0.222805
482.549777	0.227662
482.918912	0.230774
483.287988	0.230134
483.657005	0.229561
484.025964	0.236021
484.394864	0.233349
484.763706	0.233528
485.132489	0.238278
485.501213	0.239017
485.869879	0.237026
486.238487	0.240377
486.607036	0.237986
486.975527	0.242406
487.343959	0.238286
487.712333	0.237382
488.080648	0.238840
488.448905	0.237667
488.817104	0.239050
489.185244	0.233408
489.553326	0.230093
489.921350	0.220044
490.289315	0.202342
490.657222	0.197471
491.025070	0.198792
491.392861	0.200584
491.760593	0.206104
492.128267	0.211652
492.495883	0.217293
492.863440	0.223173
493.230939	0.229729
493.598380	0.230785
493.965763	0.233127
494.333088	0.235330
494.700354	0.237015
495.067563	0.235685
495.434713	0.238878
495.801805	0.236820
496.168839	0.237924
496.535815	0.239503
496.902733	0.239710
497.269593	0.240843
497.636395	0.238752
498.003139	0.238849
498.369825	0.242049
498.736453	0.238166
499.103023	0.239778
499.469535	0.239348
499.835989	0.239415
500.202385	0.240064
500.568723	0.243699
500.935003	0.238770
501.301226	0.242860
501.667390	0.237337
502.033497	0.235548
502.399546	0.238207
502.765537	0.239678
503.131470	0.238240
503.497345	0.234619
503.863163	0.243379
504.228923	0.236391
504.594625	0.234979
504.960269	0.240327
505.325856	0.235620
505.691385	0.240064
506.056856	0.236589
506.422270	0.235884
506.787625	0.238708
507.152924	0.236026
507.518164	0.236494
507.883347	0.238083
508.248472	0.239741
508.613540	0.234755
508.978550	0.237163
509.343503	0.237838
509.708398	0.235513
510.073236	0.232979
510.438016	0.233078
510.802738	0.234046
511.167403	0.232897
511.532010	0.234843
511.896561	0.230134
512.261053	0.228923
512.625488	0.231265
512.989866	0.231549
513.354186	0.231629
513.718449	0.233690
514.082655	0.229861
514.446803	0.232176
514.810894	0.229894
515.174927	0.232471
515.538904	0.231978
515.902822	0.228729
516.266684	0.231249
516.630488	0.232485
516.994235	0.231236
517.357925	0.229942
517.721558	0.228176
518.085133	0.227591
518.448651	0.227944
518.812112	0.229897
519.175516	0.229650
519.538863	0.227338
519.902152	0.228906
520.265385	0.225589
520.628560	0.227640
520.991678	0.228084
521.354739	0.227039
521.717743	0.228323
522.080690	0.228724
522.443580	0.226116
522.806413	0.226846
523.169189	0.226144
523.531908	0.224972
523.894569	0.228784
524.257174	0.228602
524.619722	0.226493
524.982213	0.227675
525.344647	0.226225
525.707025	0.227127
526.069345	0.225181
526.431608	0.227129
526.793815	0.225049
527.155964	0.229203
527.518057	0.228139
527.880093	0.229075
528.242072	0.227558
528.603995	0.229580
528.965860	0.231043
529.327669	0.230031
529.689421	0.230909
530.051117	0.231724
530.412755	0.229489
530.774337	0.231871
531.135862	0.232329
531.497331	0.231401
531.858743	0.234414
532.220098	0.231434
532.581396	0.233727
532.942638	0.234191
533.303824	0.235082
533.664953	0.234978
534.026025	0.236517
534.387040	0.234447
534.747999	0.234489
535.108902	0.233453
535.469748	0.238359
535.830537	0.236355
536.191270	0.236738
536.551947	0.236153
536.912567	0.236206
537.273131	0.238093
537.633638	0.238122
537.994089	0.238358
538.354483	0.239494
538.714821	0.236685
539.075103	0.236514
539.435328	0.237095
539.795497	0.240927
540.155609	0.237429
540.515665	0.235534
540.875665	0.241348
541.235609	0.239735
541.595496	0.239603
541.955328	0.236257
542.315102	0.238853
542.674821	0.240083
543.034483	0.240094
543.394090	0.239889
543.753640	0.241658
544.113134	0.236602
544.472571	0.240128
544.831953	0.236872
545.191278	0.240896
545.550548	0.240590
545.909761	0.237114
546.268918	0.238159
546.628019	0.236266
546.987064	0.239103
547.346053	0.240936
547.704986	0.238635
548.063863	0.239064
548.422684	0.239131
548.781449	0.241023
549.140158	0.238416
549.498811	0.241294
549.857408	0.244652
550.215949	0.239445
550.574434	0.242450
550.932864	0.240281
551.291237	0.239226
551.649555	0.240419
552.007817	0.240403
552.366022	0.241048
552.724173	0.241457
553.082267	0.241651
553.440305	0.238445
553.798288	0.243046
554.156215	0.239460
554.514086	0.240226
554.871902	0.243041
555.229661	0.242544
555.587365	0.243097
555.945014	0.245750
556.302606	0.242622
556.660143	0.245105
557.017625	0.241543
557.375050	0.243851
557.732421	0.241076
558.089735	0.242984
558.446994	0.243081
558.804197	0.242083
559.161345	0.242055
559.518437	0.245664
559.875474	0.243226
560.232455	0.243039
560.589381	0.243769
560.946251	0.243972
561.303065	0.241416
561.659825	0.243223
562.016528	0.244497
562.373177	0.247380
562.729770	0.244805
563.086307	0.246698
563.442789	0.244482
563.799216	0.247350
564.155587	0.246073
564.511904	0.247087
564.868164	0.247271
565.224370	0.247099
565.580520	0.248734
565.936615	0.248805
566.292654	0.251727
566.648638	0.248950
567.004567	0.249883
567.360441	0.250220
567.716260	0.252210
568.072023	0.250206
568.427732	0.250778
568.783385	0.253253
569.138982	0.251492
569.494525	0.250879
569.850013	0.254056
570.205445	0.252335
570.560823	0.254938
570.916145	0.256803
571.271412	0.254795
571.626625	0.256362
571.981782	0.256890
572.336884	0.257896
572.691931	0.257574
573.046923	0.258754
573.401860	0.260160
573.756743	0.261654
574.111570	0.260565
574.466342	0.261441
574.821059	0.260329
575.175722	0.262977
575.530330	0.262536
575.884882	0.262939
576.239380	0.265252
576.593823	0.265508
576.948211	0.264668
577.302544	0.268289
577.656823	0.267688
578.011047	0.267888
578.365216	0.268604
578.719330	0.270520
579.073389	0.270411
579.427394	0.271816
579.781344	0.272496
580.135239	0.274388
580.489080	0.273863
580.842866	0.276893
581.196597	0.276752
581.550273	0.275176
581.903895	0.276232
582.257463	0.274060
582.610975	0.277732
582.964434	0.277082
583.317837	0.279486
583.671186	0.279935
584.024481	0.279964
584.377721	0.282271
584.730906	0.283087
585.084037	0.282453
585.437113	0.284070
585.790135	0.283620
586.143103	0.286641
586.496016	0.287703
586.848874	0.285230
587.201679	0.285866
587.554428	0.289052
587.907124	0.287719
588.259765	0.288641
588.612352	0.289299
588.964884	0.292942
589.317362	0.292201
589.669786	0.292296
590.022155	0.291060
590.374470	0.290120
590.726731	0.292491
591.078937	0.297037
591.431090	0.293176
591.783188	0.297830
592.135232	0.297904
592.487222	0.297969
592.839157	0.296157
593.191038	0.298794
593.542866	0.300195
593.894639	0.303806
594.246358	0.301979
594.598022	0.301423
594.949633	0.304877
595.301190	0.305774
595.652692	0.304930
596.004141	0.301083
596.355535	0.308992
596.706876	0.309366
597.058162	0.311882
597.409395	0.309418
597.760573	0.306957
598.111698	0.310089
598.462768	0.310827
598.813785	0.311908
599.164748	0.313597
599.515657	0.313347
599.866511	0.317105
600.217312	0.312497
600.568060	0.317760
600.918753	0.313898
601.269392	0.314688
601.619978	0.318112
601.970510	0.316045
602.320988	0.316100
602.671412	0.313175
603.021783	0.316053
603.372100	0.317672
603.722363	0.317502
604.072572	0.317982
604.422728	0.317560
604.772830	0.319850
605.122878	0.319582
605.472872	0.319886
605.822813	0.317952
606.172701	0.321108
606.522534	0.318454
606.872314	0.318307
607.222041	0.318920
607.571714	0.317835
607.921333	0.318850
608.270899	0.318671
608.620411	0.315227
608.969870	0.319222
609.319276	0.319250
609.668627	0.319210
610.017926	0.318040
610.367171	0.316304
610.716362	0.316792
611.065500	0.317359
611.414585	0.315833
611.763616	0.316515
612.112594	0.316980
612.461518	0.316695
612.810389	0.313930
613.159207	0.316457
613.507971	0.318105
613.856682	0.314130
614.205340	0.315699
614.553945	0.312429
614.902496	0.316180
615.250994	0.314287
615.599439	0.314768
615.947830	0.314331
616.296169	0.315633
616.644454	0.314872
616.992686	0.315156
617.340864	0.312929
617.688990	0.316395
618.037063	0.313186
618.385082	0.314927
618.733048	0.311980
619.080961	0.313995
619.428821	0.313395
619.776628	0.313154
620.124382	0.314982
620.472083	0.315337
620.819731	0.314758
621.167326	0.318510
621.514868	0.318413
621.862357	0.322657
622.209793	0.322263
622.557176	0.324349
622.904506	0.325404
623.251783	0.327475
623.599007	0.330176
623.946179	0.329437
624.293297	0.331755
624.640363	0.335347
624.987376	0.335792
625.334336	0.338656
625.681243	0.340744
626.028097	0.341467
626.374899	0.342359
626.721647	0.342428
627.068343	0.345789
627.414987	0.346850
627.761577	0.349121
628.108115	0.347139
628.454600	0.352550
628.801032	0.349825
629.147412	0.352152
629.493739	0.352520
629.840014	0.355465
630.186236	0.352833
630.532405	0.358330
630.878521	0.355489
631.224585	0.357960
631.570597	0.361440
631.916556	0.359975
632.262462	0.360198
632.608316	0.362313
632.954117	0.363143
633.299866	0.363712
633.645562	0.364555
633.991206	0.368629
634.336797	0.371857
634.682336	0.374008
635.027823	0.375511
635.373257	0.375842
635.718639	0.379552
636.063968	0.378677
636.409245	0.384635
636.754470	0.384977
637.099642	0.387492
637.444762	0.390224
637.789829	0.389499
638.134845	0.392950
638.479808	0.394112
638.824719	0.393681
639.169577	0.398127
639.514383	0.396353
639.859137	0.401376
640.203839	0.400739
640.548489	0.401386
640.893086	0.402775
641.237632	0.404935
641.582125	0.403104
641.926566	0.404410
642.270955	0.404318
642.615292	0.404912
642.959576	0.404101
643.303809	0.404692
643.647990	0.403852
643.992118	0.404396
644.336195	0.408189
644.680219	0.406336
645.024192	0.406988
645.368112	0.400687
645.711981	0.399649
646.055797	0.395155
646.399562	0.397752
646.743274	0.389763
647.086935	0.386763
647.430544	0.387501
647.774101	0.385570
648.117606	0.385277
648.461059	0.386149
648.804460	0.388623
649.147810	0.394036
649.491108	0.395800
649.834354	0.397263
650.177548	0.402470
650.520690	0.407337
650.863781	0.408863
651.206820	0.408009
651.549807	0.412946
651.892742	0.416630
652.235626	0.416314
652.578458	0.417145
652.921238	0.423241
653.263967	0.421292
653.606644	0.425328
653.949269	0.424994
654.291843	0.429343
654.634365	0.425671
654.976836	0.428847
655.319255	0.429004
655.661622	0.430460
656.003938	0.430542
656.346203	0.433661
656.688416	0.431018
657.030577	0.434913
657.372687	0.437008
657.714746	0.437367
658.056753	0.434830
658.398708	0.437725
658.740612	0.439555
659.082465	0.435512
659.424266	0.436480
659.766016	0.435972
660.107715	0.438387
660.449362	0.437064
660.790958	0.437869
661.132503	0.438572
661.473996	0.436036
661.815438	0.437035
662.156829	0.436679
662.498168	0.437742
662.839456	0.438969
663.180693	0.436723
663.521879	0.436846
663.863013	0.437463
664.204097	0.436149
664.545129	0.433033
664.886110	0.433533
665.227040	0.430919
665.567918	0.433184
665.908746	0.431764
666.249522	0.430896
666.590248	0.431884
666.930922	0.430448
667.271545	0.429390
667.612118	0.429582
667.952639	0.431116
668.293109	0.429789
668.633528	0.432081
668.973896	0.432477
669.314213	0.432896
669.654480	0.434259
669.994695	0.434656
670.334859	0.435751
670.674973	0.435559
671.015035	0.435994
671.355047	0.435982
671.695008	0.436959
672.034918	0.438696
672.374777	0.437569
672.714585	0.439649
673.054342	0.439187
673.394049	0.439505
673.733705	0.436824
674.073310	0.437971
674.412864	0.441197
674.752368	0.441475
675.091820	0.442297
675.431223	0.446312
675.770574	0.445819
676.109875	0.449049
676.449125	0.449152
676.788324	0.451440
677.127473	0.456104
677.466571	0.456574
677.805619	0.458137
678.144616	0.459392
678.483562	0.460758
678.822458	0.463334
679.161303	0.464082
679.500098	0.464984
679.838842	0.466634
680.177535	0.465967
680.516179	0.464920
680.854771	0.463242
681.193314	0.457164
681.531805	0.448394
681.870247	0.437002
682.208638	0.429397
682.546978	0.428138
682.885268	0.430354
683.223508	0.436325
683.561697	0.440293
683.899836	0.443159
684.237925	0.446206
684.575963	0.448511
684.913951	0.451328
685.251889	0.447631
685.589776	0.449849
685.927614	0.451959
686.265401	0.446459
686.603137	0.447340
686.940824	0.441418
687.278460	0.440116
687.616046	0.438988
687.953582	0.434082
688.291068	0.435554
688.628504	0.431469
688.965889	0.433191
689.303224	0.437558
689.640510	0.441073
689.977745	0.447238
690.314930	0.454848
690.652065	0.459710
690.989150	0.466881
691.326185	0.473960
691.663170	0.478594
692.000105	0.485751
692.336990	0.492278
692.673825	0.495003
693.010610	0.502005
693.347345	0.507291
693.684030	0.509030
694.020665	0.512962
694.357251	0.522595
694.693786	0.521694
695.030272	0.526120
695.366707	0.528690
695.703093	0.532603
696.039429	0.530014
696.375716	0.532184
696.711952	0.534769
697.048139	0.536441
697.384276	0.538721
697.720363	0.537286
698.056400	0.535772
698.392388	0.542167
698.728326	0.545395
699.064214	0.547732
699.400053	0.548579
699.735842	0.552285
700.071581	0.554702
700.407270	0.557703
700.742910	0.560003
701.078501	0.566977
701.414042	0.566841
701.749533	0.570247
702.084974	0.578826
702.420366	0.570831
702.755709	0.578713
703.091002	0.586675
703.426246	0.579584
703.761440	0.585377
704.096584	0.590931
704.431679	0.587086
704.766725	0.590069
705.101721	0.591204
705.436668	0.586768
705.771565	0.594276
706.106413	0.591189
706.441212	0.586508
706.775961	0.585357
707.110661	0.588063
707.445311	0.584978
707.779913	0.580913
708.114465	0.579786
708.448967	0.576869
708.783421	0.569101
709.117825	0.563583
709.452180	0.563198
709.786485	0.557487
710.120742	0.547207
710.454949	0.549554
710.789107	0.541261
711.123216	0.532242
711.457275	0.534153
711.791286	0.525013
712.125247	0.523893
712.459159	0.534984
712.793023	0.527678
713.126837	0.531033
713.460602	0.532029
713.794318	0.541176
714.127985	0.540121
714.461602	0.550514
714.795171	0.553866
715.128691	0.560986
715.462162	0.568030
715.795584	0.574482
716.128957	0.577074
716.462281	0.583649
716.795556	0.587353
717.128782	0.592077
717.461960	0.602091
717.795088	0.599865
718.128167	0.606685
718.461198	0.615434
718.794180	0.616112
719.127113	0.618706
719.459997	0.621588
719.792833	0.628730
720.125619	0.629693
720.458357	0.634658
720.791046	0.635104
721.123686	0.638321
721.456278	0.645046
721.788821	0.642612
722.121315	0.647106
722.453761	0.650563
722.786158	0.649105
723.118506	0.644623
723.450805	0.652902
723.783056	0.648790
724.115259	0.646183
724.447412	0.646304
724.779518	0.647886
725.111574	0.645885
725.443582	0.641268
725.775542	0.644027
726.107453	0.635948
726.439315	0.635636
726.771129	0.633913
727.102895	0.628255
727.434612	0.621151
727.766281	0.618480
728.097901	0.617860
728.429473	0.617684
728.760996	0.615864
729.092471	0.616329
729.423897	0.620277
729.755276	0.619216
730.086606	0.618710
730.417887	0.613277
730.749120	0.604374
731.080305	0.595310
731.411442	0.591362
731.742530	0.596315
732.073570	0.595454
732.404562	0.587871
732.735506	0.588758
733.066401	0.593865
733.397249	0.602964
733.728048	0.614144
734.058798	0.626661
734.389501	0.637544
734.720156	0.646787
735.050762	0.655076
735.381320	0.656574
735.711831	0.666185
736.042293	0.669788
736.372707	0.665841
736.703073	0.670606
737.033391	0.673197
737.363661	0.669523
737.693883	0.665247
738.024056	0.664127
738.354182	0.664701
738.684260	0.653580
739.014290	0.649967
739.344272	0.650343
739.674207	0.644558
740.004093	0.643695
740.333931	0.644161
740.663722	0.643847
740.993464	0.644427
741.323159	0.648428
741.652806	0.653148
741.982405	0.658303
742.311956	0.662070
742.641460	0.665163
742.970915	0.668676
743.300323	0.676245
743.629683	0.682131
743.958996	0.684528
744.288260	0.688570
744.617477	0.694744
744.946647	0.696674
745.275768	0.702289
745.604842	0.701465
745.933869	0.711745
746.262847	0.712192
746.591778	0.704821
746.920662	0.712012
747.249498	0.717705
747.578286	0.708882
747.907027	0.705386
748.235720	0.705542
748.564365	0.701033
748.892963	0.700791
749.221514	0.703538
749.550017	0.709556
749.878473	0.708013
750.206881	0.715104
750.535242	0.716051
750.863555	0.716420
751.191821	0.717440
751.520039	0.720478
751.848210	0.725473
752.176334	0.717517
752.504411	0.717073
752.832440	0.724388
753.160421	0.728843
753.488356	0.727382
753.816243	0.723935
754.144082	0.732975
754.471875	0.736683
754.799620	0.731624
755.127318	0.733366
755.454969	0.733544
755.782572	0.733097
756.110129	0.738174
756.437638	0.739858
756.765100	0.736355
757.092515	0.734394
757.419882	0.733772
757.747203	0.738517
758.074477	0.738292
758.401703	0.735116
758.728882	0.730319
759.056014	0.729092
759.383099	0.728517
759.710138	0.729907
760.037129	0.725987
760.364073	0.720713
760.690970	0.722206
761.017820	0.728271
761.344623	0.724032
761.671379	0.715055
761.998088	0.703169
762.324751	0.680271
762.651366	0.638719
762.977935	0.571808
763.304456	0.520520
763.630931	0.510147
763.957359	0.549569
764.283740	0.594558
764.610074	0.620460
764.936362	0.652432
765.262602	0.679688
765.588796	0.700111
765.914943	0.717666
766.241044	0.735177
766.567097	0.741720
766.893104	0.752906
767.219064	0.757993
767.544978	0.765559
767.870845	0.778430
768.196665	0.781913
768.522438	0.779950
768.848165	0.781176
769.173846	0.789827
769.499479	0.793684
769.825066	0.797866
770.150607	0.802052
770.476101	0.798322
770.801548	0.799784
771.126949	0.810449
771.452303	0.814964
771.777611	0.814391
772.102872	0.813464
772.428087	0.818677
772.753256	0.820826
773.078378	0.823336
773.403453	0.831758
773.728482	0.837114
774.053465	0.831150
774.378401	0.834494
774.703291	0.841654
775.028135	0.840767
775.352932	0.843071
775.677683	0.845825
776.002388	0.847806
776.327046	0.846395
776.651658	0.849899
776.976224	0.853385
777.300743	0.853581
777.625216	0.856031
777.949643	0.857520
778.274024	0.857067
778.598359	0.858884
778.922647	0.856359
779.246889	0.857886
779.571086	0.862368
779.895236	0.864706
780.219339	0.860572
780.543397	0.858228
780.867409	0.857324
781.191374	0.859587
781.515294	0.860228
781.839167	0.859420
782.162995	0.863698
782.486776	0.859615
782.810511	0.860557
783.134201	0.864512
783.457844	0.862041
783.781441	0.864702
784.104993	0.870500
784.428498	0.870964
784.751958	0.866945
785.075372	0.868782
785.398739	0.873507
785.722061	0.868342
786.045337	0.864160
786.368568	0.869577
786.691752	0.872220
787.014891	0.858356
787.337983	0.848789
787.661030	0.841170
787.984031	0.824311
788.306987	0.811555
788.629897	0.812544
788.952760	0.817869
789.275579	0.821497
789.598351	0.836521
789.921078	0.850057
790.243759	0.850956
790.566395	0.858185
790.888984	0.864473
791.211529	0.869251
791.534027	0.872142
791.856480	0.874847
792.178888	0.879650
792.501249	0.882910
792.823566	0.883605
793.145836	0.882344
793.468062	0.885026
793.790241	0.885043
794.112375	0.883110
794.434464	0.879270
794.756507	0.878079
795.078505	0.877451
795.400457	0.872490
795.722364	0.860074
796.044226	0.853241
796.366042	0.852893
796.687812	0.855080
797.009538	0.852057
797.331218	0.854415
797.652852	0.860445
797.974442	0.864927
798.295986	0.864744
798.617484	0.868066
798.938938	0.871275
799.260346	0.876046
799.581709	0.878615
799.903026	0.879311
800.224299	0.881438
800.545526	0.885347
800.866708	0.888838
801.187845	0.892996
801.508936	0.892143
801.829983	0.890407
802.150984	0.893070
802.471940	0.898306
802.792851	0.897824
803.113717	0.898160
803.434538	0.895814
803.755314	0.899054
804.076045	0.899754
804.396731	0.900944
804.717372	0.899093
805.037967	0.901906
805.358518	0.900288
805.679024	0.897071
805.999485	0.897462
806.319901	0.896987
806.640272	0.899182
806.960598	0.897263
807.280879	0.893788
807.601115	0.893826
807.921306	0.896489
808.241453	0.895929
808.561554	0.895431
808.881611	0.893939
809.201623	0.897673
809.521590	0.896625
809.841513	0.897188
810.161390	0.896192
810.481223	0.898743
810.801011	0.901608
811.120755	0.904030
811.440453	0.901801
811.760107	0.901115
812.079716	0.899986
812.399281	0.903927
812.718801	0.906499
813.038276	0.908483
813.357707	0.907309
813.677093	0.904343
813.996434	0.908208
814.315731	0.909446
814.634983	0.909876
814.954191	0.908380
815.273354	0.905487
815.592473	0.901551
815.911547	0.901669
816.230577	0.899528
816.549562	0.896452
816.868502	0.897414
817.187399	0.893802
817.506250	0.888329
817.825058	0.890739
818.143821	0.887032
818.462539	0.882459
818.781213	0.873566
819.099843	0.862486
819.418429	0.847277
819.736970	0.829821
820.055466	0.811000
820.373919	0.785581
820.692327	0.753354
821.010691	0.718280
821.329011	0.640905
821.647286	0.526268
821.965517	0.412933
822.283704	0.370612
822.601847	0.372127
822.919945	0.407509
823.237999	0.440612
823.556010	0.487982
823.873976	0.543044
824.191897	0.593482
824.509775	0.635360
824.827609	0.680472
825.145398	0.703292
825.463144	0.706109
825.780845	0.689244
826.098502	0.670155
826.416116	0.624341
826.733685	0.581213
827.051210	0.572321
827.368692	0.587243
827.686129	0.624300
828.003522	0.676247
828.320872	0.724314
828.638177	0.768023
828.955439	0.801605
829.272656	0.822070
829.589830	0.839330
829.906960	0.855154
830.224046	0.867734
830.541088	0.878277
830.858086	0.881503
831.175041	0.887109
831.491952	0.887410
831.808819	0.883788
832.125642	0.877684
832.442421	0.863014
832.759157	0.840442
833.075849	0.795035
833.392497	0.731801
833.709101	0.690845
834.025662	0.700619
834.342179	0.732881
834.658653	0.770453
834.975083	0.806412
835.291469	0.831857
835.607811	0.855941
835.924110	0.870484
836.240366	0.887574
836.556578	0.902766
836.872746	0.909421
837.188871	0.915282
837.504952	0.920334
837.820990	0.923589
838.136984	0.927336
838.452935	0.930817
838.768842	0.931358
839.084706	0.925939
839.400526	0.900083
839.716303	0.859242
840.032037	0.837393
840.347727	0.841195
840.663373	0.859515
840.978977	0.879828
841.294537	0.901361
841.610054	0.920141
841.925527	0.926520
842.240957	0.933941
842.556344	0.940369
842.871687	0.946465
843.186987	0.950602
843.502244	0.950852
843.817458	0.953068
844.132629	0.955267
844.447756	0.961064
844.762840	0.960601
845.077881	0.959794
845.392879	0.960076
845.707833	0.962196
846.022745	0.964421
846.337613	0.964574
846.652438	0.966701
846.967221	0.964258
847.281960	0.965341
847.596656	0.967503
847.911309	0.966590
848.225919	0.968442
848.540485	0.968148
848.855009	0.969063
849.169490	0.968670
849.483928	0.968954
849.798323	0.968844
850.112675	0.970900
850.426984	0.970292
850.741251	0.970803
851.055474	0.969981
851.369654	0.968411
851.683792	0.970266
851.997887	0.969808
852.311938	0.970834
852.625947	0.970419
852.939914	0.968986
853.253837	0.970409
853.567718	0.969966
853.881555	0.971671
854.195350	0.967927
854.509103	0.969889
854.822812	0.970283
855.136479	0.970010
855.450103	0.970212
855.763685	0.969225
856.077224	0.967714
856.390720	0.970202
856.704173	0.971403
857.017584	0.969237
857.330953	0.967204
857.644278	0.968547
857.957561	0.970263
858.270802	0.968213
858.584000	0.968655
858.897155	0.966578
859.210268	0.967461
859.523339	0.968387
859.836367	0.969872
860.149352	0.970403
860.462295	0.969250
860.775195	0.969948
861.088054	0.969101
861.400869	0.969923
861.713642	0.971134
862.026373	0.970847
862.339062	0.971420
862.651708	0.968081
862.964312	0.968546
863.276873	0.969497
863.589392	0.968978
863.901869	0.966574
864.214303	0.965481
864.526696	0.964368
864.839045	0.963689
865.151353	0.960630
865.463619	0.962895
865.775842	0.963342
866.088023	0.963037
866.400162	0.963282
866.712258	0.961972
867.024313	0.963063
867.336325	0.963260
867.648296	0.964179
867.960224	0.962335
868.272110	0.962943
868.583954	0.963961
868.895755	0.964622
869.207515	0.961429
869.519233	0.959980
869.830909	0.961171
870.142542	0.962947
870.454134	0.961497
870.765684	0.960982
871.077191	0.958720
871.388657	0.958881
871.700081	0.957815
872.011463	0.958851
872.322803	0.959297
872.634101	0.957284
872.945357	0.955307
873.256571	0.952981
873.567744	0.952304
873.878874	0.954010
874.189963	0.952322
874.501010	0.951653
874.812015	0.949123
875.122979	0.951861
875.433900	0.954364
875.744780	0.953586
876.055618	0.952013
876.366415	0.949899
876.677169	0.950582
876.987882	0.951877
877.298554	0.951031
877.609183	0.947003
877.919771	0.945720
878.230317	0.944131
878.540822	0.939924
878.851285	0.934257
879.161707	0.928035
879.472087	0.916624
879.782425	0.899530
880.092722	0.867116
880.402977	0.814575
880.713191	0.754638
881.023363	0.695633
881.333494	0.662443
881.643583	0.634824
881.953631	0.634584
882.263637	0.663085
882.573602	0.701791
882.883526	0.727449
883.193408	0.750448
883.503248	0.773294
883.813048	0.800120
884.122806	0.830133
884.432522	0.852586
884.742197	0.871463
885.051831	0.882763
885.361424	0.892683
885.670975	0.905565
885.980485	0.914748
886.289954	0.920510
886.599382	0.925529
886.908768	0.929828
887.218113	0.934950
887.527417	0.938717
887.836680	0.942956
888.145901	0.944019
888.455082	0.945880
888.764221	0.950918
889.073319	0.953383
889.382376	0.952453
889.691392	0.953903
890.000366	0.953425
890.309300	0.954206
890.618193	0.953481
890.927044	0.952080
891.235855	0.951814
891.544625	0.951807
891.853353	0.952402
892.162041	0.950090
892.470687	0.943439
892.779293	0.938725
893.087858	0.934039
893.396381	0.927786
893.704864	0.914548
894.013306	0.890941
894.321707	0.864516
894.630068	0.850226
894.938387	0.846065
895.246665	0.846653
895.554903	0.858219
895.863100	0.871486
896.171256	0.888473
896.479371	0.907560
896.787446	0.920799
897.095480	0.926030
897.403473	0.929491
897.711425	0.933521
898.019336	0.941382
898.327207	0.943465
898.635038	0.945222
898.942827	0.945480
899.250576	0.949303
899.558284	0.952892
899.865952	0.954267
900.173579	0.955558
900.481165	0.956348
900.788711	0.959860
901.096216	0.961610
901.403681	0.962592
901.711105	0.963007
902.018489	0.964132
902.325832	0.962947
902.633135	0.962384
902.940397	0.956490
903.247619	0.944601
903.554800	0.917899
903.861941	0.880045
904.169041	0.846555
904.476101	0.827688
904.783121	0.829613
905.090100	0.845877
905.397039	0.865944
905.703938	0.887179
906.010796	0.906919
906.317614	0.924035
906.624391	0.935201
906.931129	0.945281
907.237826	0.953076
907.544483	0.959477
907.851099	0.963657
908.157675	0.968045
908.464211	0.970725
908.770707	0.972873
909.077163	0.974248
909.383578	0.974915
909.689954	0.975617
909.996289	0.976433
910.302584	0.978051
910.608839	0.979931
910.915054	0.979179
911.221229	0.978976
911.527363	0.977875
911.833458	0.977846
912.139513	0.977770
912.445527	0.975506
912.751502	0.973674
913.057436	0.973092
913.363331	0.970578
913.669186	0.968463
913.975000	0.962657
914.280775	0.956313
914.586510	0.948831
914.892205	0.936557
915.197859	0.915428
915.503475	0.888209
915.809050	0.869218
916.114585	0.864063
916.420081	0.861934
916.725536	0.859038
917.030952	0.866723
917.336328	0.877674
917.641665	0.892958
917.946961	0.908944
918.252218	0.921161
918.557435	0.929063
918.862612	0.937913
919.167750	0.943784
919.472848	0.947196
919.777906	0.953155
920.082925	0.958936
920.387904	0.963147
920.692843	0.963337
920.997743	0.964930
921.302603	0.968439
921.607423	0.969767
921.912204	0.972101
922.216946	0.972182
922.521647	0.974230
922.826310	0.975391
923.130932	0.978282
923.435516	0.978656
923.740059	0.981043
924.044564	0.979238
924.349028	0.982115
924.653454	0.983512
924.957840	0.984762
925.262186	0.984338
925.566493	0.983896
925.870761	0.985171
926.174989	0.986780
926.479178	0.988998
926.783328	0.988629
927.087438	0.988275
927.391509	0.988020
927.695541	0.990235
927.999533	0.989513
928.303486	0.989259
928.607400	0.990192
928.911275	0.990509
929.215110	0.990660
929.518906	0.990132
929.822663	0.990472
930.126381	0.990071
930.430060	0.990023
930.733699	0.989950
931.037299	0.989107
931.340861	0.991128
931.644383	0.990029
931.947866	0.989372
932.251309	0.990417
932.554714	0.989963
932.858080	0.990222
933.161407	0.990614
933.464694	0.989545
933.767943	0.989581
934.071153	0.990580
934.374323	0.992111
934.677455	0.991258
934.980548	0.991067
935.283602	0.991739
935.586617	0.990931
935.889593	0.990525
936.192530	0.990912
936.495428	0.991050
936.798287	0.990001
937.101108	0.990213
937.403890	0.989921
937.706632	0.988130
938.009336	0.986877
938.312002	0.986207
938.614628	0.983739
938.917216	0.983606
939.219765	0.982056
939.522275	0.983497
939.824747	0.984236
940.127179	0.983624
940.429573	0.984949
940.731929	0.984924
941.034246	0.984781
941.336524	0.985832
941.638763	0.986356
941.940964	0.986495
942.243126	0.987242
942.545250	0.986988
942.847335	0.989111
943.149381	0.988594
943.451389	0.988980
943.753359	0.989079
944.055290	0.990424
944.357182	0.989608
944.659036	0.988233
944.960851	0.990037
945.262628	0.990271
945.564367	0.991153
945.866067	0.990838
946.167729	0.990498
946.469352	0.989721
946.770937	0.989525
947.072484	0.991113
947.373992	0.990386
947.675462	0.991137
947.976893	0.990510
948.278286	0.989579
948.579641	0.992192
948.880958	0.991124
949.182236	0.990561
949.483476	0.991046
949.784678	0.990319
950.085841	0.991583
950.386967	0.991166
950.688054	0.990735
950.989103	0.990256
951.290114	0.989245
951.591087	0.989706
951.892021	0.990251
952.192917	0.989953
952.493776	0.988133
952.794596	0.988435
953.095378	0.987490
953.396122	0.988087
953.696828	0.987446
953.997496	0.988659
954.298126	0.990846
954.598718	0.989879
954.899272	0.991877
955.199788	0.990949
955.500266	0.992814
955.800706	0.993105
956.101108	0.994146
956.401472	0.993730
956.701798	0.995123
957.002087	0.992437
957.302337	0.994363
957.602550	0.995324
957.902724	0.995690
958.202861	0.995386
958.502960	0.995205
958.803022	0.993599
959.103045	0.996147
959.403031	0.995963
959.702979	0.996094
960.002889	0.996233
960.302762	0.994922
960.602596	0.995699
960.902393	0.994493
961.202153	0.997049
961.501875	0.996845
961.801559	0.995613
962.101205	0.996123
962.400814	0.996376
962.700385	0.996962
962.999918	0.996800
963.299414	0.996245
963.598873	0.995732
963.898293	0.995953
964.197677	0.996911
964.497022	0.996256
964.796331	0.997699
965.095601	0.996321
965.394835	0.995832
965.694030	0.996501
965.993189	0.997633
966.292309	0.996175
966.591393	0.997484
966.890439	0.996864
967.189447	0.996067
967.488419	0.996716
967.787353	0.994659
968.086249	0.996061
968.385108	0.997349
968.683930	0.996242
968.982714	0.996816
969.281462	0.997497
969.580172	0.997070
969.878844	0.997403
970.177480	0.996465
970.476078	0.997065
970.774639	0.996842
971.073162	0.997260
971.371649	0.997289
971.670098	0.995120
971.968510	0.997166
972.266885	0.995686
972.565223	0.996342
972.863524	0.995351
973.161788	0.996012
973.460014	0.997642
973.758204	0.996511
974.056356	0.997046
974.354471	0.994395
974.652550	0.996001
974.950591	0.995987
975.248595	0.995959
975.546563	0.996787
975.844493	0.997846
976.142386	0.997862
976.440243	0.997375
976.738062	0.996997
977.035845	0.997658
977.333590	0.996199
977.631299	0.997277
977.928971	0.997444
978.226606	0.997465
978.524204	0.995356
978.821765	0.998994
979.119290	0.996816
979.416777	0.996654
979.714228	0.997987
980.011642	0.996345
980.309020	0.997587
980.606360	0.996215
980.903664	0.997634
981.200931	0.996405
981.498162	0.995528
981.795356	0.995263
982.092513	0.993065
982.389633	0.994437
982.686717	0.991445
982.983764	0.990863
983.280775	0.991002
983.577749	0.990378
983.874686	0.993642
984.171587	0.992207
984.468451	0.994763
984.765279	0.994677
985.062070	0.995345
985.358824	0.994976
985.655543	0.994698
985.952224	0.996009
986.248869	0.996547
986.545478	0.997197
986.842050	0.998105
987.138586	0.996664
987.435086	0.997183
987.731549	0.998656
988.027975	0.997620
988.324366	0.998050
988.620719	0.997788
988.917037	0.995914
989.213318	0.998120
989.509563	0.999568
989.805772	0.997668
990.101944	0.999833
990.398080	0.997020
990.694180	0.998042
990.990244	0.997602
991.286271	0.997441
991.582262	0.999046
991.878217	0.997960
992.174136	0.998125
992.470019	0.998496
992.765865	0.998086
993.061676	0.998557
993.357450	0.997613
993.653188	0.997006
993.948890	0.997011
994.244556	0.998076
994.540186	0.996912
994.835780	0.996563
995.131337	0.997413
995.426859	0.996485
995.722345	0.997984
996.017795	0.995665
996.313208	0.995870
996.608586	0.995321
996.903928	0.996690
997.199234	0.995143
997.494504	0.996051
997.789738	0.996975
998.084936	0.996531
998.380099	0.997643
998.675225	0.997198
998.970316	0.998565
999.265371	0.997981
999.560390	0.998167
999.855373	0.998586
1000.150320	0.998475
1000.445232	0.997284
1000.740108	0.998387
1001.034948	0.997657
1001.329752	0.997561
1001.624521	0.999097
1001.919254	0.997554
1002.213951	0.998630
1002.508613	0.998561
1002.803239	0.998995
1003.097829	0.999354
1003.392384	0.998154
1003.686903	0.997794
1003.981386	0.998317
1004.275834	0.998845
1004.570246	0.998736
1004.864623	0.998785
1005.158964	0.999652
1005.453270	0.997227
1005.747540	0.998237
1006.041775	0.998612
1006.335974	0.998839
1006.630138	0.999574
1006.924266	0.999152
1007.218359	1.000496
1007.512416	0.999294
1007.806438	0.999220
1008.100425	0.999186
1008.394376	0.998657
1008.688292	0.998582
1008.982172	1.000103
1009.276017	0.999569
1009.569827	0.998950
1009.863602	0.998019
1010.157341	0.999254
1010.451045	0.998783
1010.744714	0.999500
1011.038347	0.998841
1011.331945	0.999439
1011.625508	0.996792
1011.919036	0.999238
1012.212528	0.998485
1012.505986	0.997795
1012.799408	0.998636
1013.092795	0.999513
1013.386147	0.998348
1013.679464	0.999510
1013.972745	0.999138
1014.265992	0.996952
1014.559204	0.998640
1014.852380	0.998892
1015.145521	0.998639
1015.438628	0.999235
1015.731699	0.998420
1016.024736	0.999198
1016.317737	0.999109
1016.610703	0.999161
1016.903635	0.999974
1017.196531	0.998488
1017.489393	0.999250
1017.782219	0.998183
1018.075011	0.998368
1018.367768	1.000633
1018.660490	0.999395
1018.953177	0.999395
1019.245829	0.999395
