Dividing Wavelength (nm)	Counts (n)	Blue Motor Position (mm): 0.000000	Red Motor Position (mm): 30.200000	
326.493990	1.000087
326.888308	1.000087
327.282561	1.000087
327.676750	0.999086
328.070874	0.999317
328.464933	0.999737
328.858929	0.998769
329.252859	1.000087
329.646726	0.999285
330.040528	1.000545
330.434265	0.999898
330.827938	1.000784
331.221547	1.001300
331.615091	1.000773
332.008571	1.000715
332.401986	1.000582
332.795338	1.000999
333.188625	0.999454
333.581847	1.000841
333.975006	0.998861
334.368100	0.999071
334.761129	0.999174
335.154095	1.000733
335.546996	0.998272
335.939833	0.994375
336.332606	0.995127
336.725315	0.997071
337.117960	0.996742
337.510540	0.995276
337.903056	0.996161
338.295508	0.993227
338.687896	0.996298
339.080220	0.996104
339.472480	0.995253
339.864676	0.994947
340.256807	0.995641
340.648875	0.996204
341.040879	0.995863
341.432818	0.996160
341.824694	0.995346
342.216506	0.995518
342.608253	0.995877
342.999937	0.994820
343.391557	0.995820
343.783113	0.995983
344.174605	0.995960
344.566033	0.995738
344.957397	0.995727
345.348697	0.995317
345.739934	0.996092
346.131106	0.995386
346.522215	0.995303
346.913260	0.996352
347.304241	0.995146
347.695159	0.994277
348.086012	0.993606
348.476802	0.994397
348.867528	0.995561
349.258191	0.995132
349.648789	0.995951
350.039324	0.994034
350.429796	0.997058
350.820203	0.995190
351.210548	0.996036
351.600828	0.995041
351.991045	0.995737
352.381198	0.994893
352.771288	0.995073
353.161314	0.995725
353.551276	0.996798
353.941175	0.995540
354.331010	0.995712
354.720782	0.995332
355.110490	0.995401
355.500135	0.995789
355.889717	0.996212
356.279235	0.994740
356.668689	0.995868
357.058080	0.995883
357.447408	0.997187
357.836672	0.996595
358.225873	0.996459
358.615010	0.996399
359.004084	0.996569
359.393095	0.995987
359.782043	0.996586
360.170927	0.996481
360.559748	0.997611
360.948505	0.995074
361.337199	0.995340
361.725830	0.995430
362.114398	0.994964
362.502903	0.997043
362.891344	0.995536
363.279722	0.996048
363.668037	0.995980
364.056289	0.996243
364.444478	0.997119
364.832603	0.995893
365.220665	0.995114
365.608665	0.996536
365.996601	0.995396
366.384474	0.994934
366.772284	0.995808
367.160031	0.995918
367.547715	0.994485
367.935336	0.995691
368.322893	0.995616
368.710388	0.994115
369.097820	0.995561
369.485189	0.995935
369.872495	0.994691
370.259738	0.993353
370.646918	0.995828
371.034035	0.997634
371.421090	0.996231
371.808081	0.995252
372.195010	0.995355
372.581875	0.995775
372.968678	0.995702
373.355418	0.996445
373.742096	0.995737
374.128710	0.996471
374.515262	0.995557
374.901751	0.995725
375.288177	0.995907
375.674540	0.997383
376.060841	0.996511
376.447079	0.996170
376.833254	0.995635
377.219367	0.996502
377.605417	0.996511
377.991404	0.995688
378.377329	0.996064
378.763191	0.996157
379.148991	0.997675
379.534727	0.996633
379.920402	0.996541
380.306013	0.995814
380.691563	0.996701
381.077049	0.996541
381.462474	0.996537
381.847835	0.996522
382.233134	0.996273
382.618371	0.997244
383.003545	0.996935
383.388657	0.996133
383.773706	0.997244
384.158693	0.996466
384.543618	0.997333
384.928480	0.997358
385.313280	0.996373
385.698017	0.997874
386.082692	0.997529
386.467305	0.997276
386.851856	0.996782
387.236344	0.995613
387.620770	0.996529
388.005133	0.996756
388.389435	0.998278
388.773674	0.997267
389.157851	0.997580
389.541965	0.996853
389.926018	0.996074
390.310008	0.998929
390.693936	0.996986
391.077802	0.996939
391.461606	0.996820
391.845348	0.997185
392.229027	0.997712
392.612645	0.997357
392.996200	0.997986
393.379694	0.997515
393.763125	0.998166
394.146494	0.997566
394.529801	0.997283
394.913047	0.998791
395.296230	0.997472
395.679351	0.997578
396.062410	0.997561
396.445408	0.998084
396.828343	0.997457
397.211217	0.997130
397.594028	0.997739
397.976778	0.996959
398.359466	0.997410
398.742092	0.996899
399.124656	0.997045
399.507158	0.997009
399.889598	0.997532
400.271977	0.998626
400.654294	0.998060
401.036549	0.998402
401.418742	0.998209
401.800874	0.997027
402.182944	0.998040
402.564952	0.997158
402.946898	0.998408
403.328783	0.997684
403.710606	0.996790
404.092367	0.997957
404.474067	0.997953
404.855705	0.997954
405.237282	0.997915
405.618797	0.997358
406.000250	0.997117
406.381642	0.997638
406.762972	0.997795
407.144240	0.998272
407.525447	0.997749
407.906593	0.997034
408.287677	0.998237
408.668700	0.997909
409.049661	0.998075
409.430560	0.997897
409.811399	0.998010
410.192176	0.997718
410.572891	0.996803
410.953545	0.997565
411.334138	0.997902
411.714669	0.998969
412.095139	0.996760
412.475547	0.998298
412.855894	0.998544
413.236180	0.998098
413.616405	0.998194
413.996568	0.999053
414.376670	0.997446
414.756711	0.997699
415.136691	0.998667
415.516609	0.997953
415.896466	0.997162
416.276262	0.996848
416.655997	0.997798
417.035670	0.998134
417.415283	0.997550
417.794834	0.998285
418.174324	0.998367
418.553753	0.998920
418.933121	0.997894
419.312428	0.997474
419.691674	0.997220
420.070859	0.997889
420.449983	0.998127
420.829045	0.997855
421.208047	0.998684
421.586988	0.998698
421.965867	0.998445
422.344686	0.998652
422.723444	0.998027
423.102141	0.998705
423.480777	0.998148
423.859352	0.998438
424.237866	0.997777
424.616319	0.998375
424.994712	0.998034
425.373044	0.999046
425.751314	0.997664
426.129524	0.998263
426.507673	0.998634
426.885762	0.998695
427.263789	0.997598
427.641756	0.998371
428.019662	0.998928
428.397508	0.998179
428.775292	0.997251
429.153016	0.997496
429.530679	0.998276
429.908282	0.998513
430.285824	0.997683
430.663305	0.997473
431.040726	0.998012
431.418086	0.999211
431.795385	0.999162
432.172624	0.997753
432.549802	0.998043
432.926920	0.998115
433.303977	0.997875
433.680974	0.998338
434.057910	0.998940
434.434786	0.999064
434.811601	0.997678
435.188355	0.998246
435.565050	0.998011
435.941683	0.997705
436.318257	0.998651
436.694770	0.997598
437.071222	0.998595
437.447614	0.997840
437.823946	0.997887
438.200218	0.998442
438.576429	0.998275
438.952580	0.999103
439.328670	0.998414
439.704700	0.998596
440.080670	0.998562
440.456580	0.997406
440.832429	0.997411
441.208218	0.997924
441.583947	0.998924
441.959616	0.998844
442.335224	0.997916
442.710773	0.998676
443.086261	0.997445
443.461689	0.997429
443.837057	0.997789
444.212365	0.998575
444.587612	0.997617
444.962800	0.998492
445.337927	0.997788
445.712995	0.997818
446.088002	0.998942
446.462949	0.998982
446.837837	0.997803
447.212664	0.998319
447.587431	0.998446
447.962139	0.998755
448.336786	0.998621
448.711374	0.998190
449.085901	0.998396
449.460369	0.999165
449.834776	0.997945
450.209124	0.998365
450.583412	0.997870
450.957640	0.998194
451.331808	0.998256
451.705917	0.998168
452.079965	0.997588
452.453954	0.997803
452.827883	0.997892
453.201752	0.997694
453.575562	0.998707
453.949311	0.998583
454.323001	0.997750
454.696632	0.997746
455.070202	0.997967
455.443713	0.997190
455.817164	0.998597
456.190556	0.998283
456.563888	0.997411
456.937160	0.997668
457.310373	0.997535
457.683526	0.997185
458.056619	0.998044
458.429653	0.997768
458.802628	0.996714
459.175542	0.996733
459.548398	0.997106
459.921194	0.996959
460.293930	0.997178
460.666607	0.996041
461.039224	0.995978
461.411782	0.996483
461.784280	0.995911
462.156719	0.997357
462.529099	0.996614
462.901419	0.996229
463.273680	0.996456
463.645882	0.995476
464.018024	0.995136
464.390106	0.994991
464.762130	0.995118
465.134094	0.994029
465.505999	0.993543
465.877845	0.992083
466.249631	0.992488
466.621358	0.991390
466.993026	0.991569
467.364634	0.990766
467.736184	0.990976
468.107674	0.989986
468.479105	0.987955
468.850477	0.988618
469.221790	0.987177
469.593043	0.987422
469.964238	0.986565
470.335373	0.984543
470.706449	0.983555
471.077467	0.982680
471.448425	0.980031
471.819324	0.977983
472.190164	0.976339
472.560945	0.976678
472.931667	0.974896
473.302330	0.973821
473.672934	0.973572
474.043479	0.970773
474.413965	0.969743
474.784393	0.967887
475.154761	0.965630
475.525070	0.962487
475.895321	0.961754
476.265513	0.958780
476.635645	0.956223
477.005719	0.953833
477.375734	0.950630
477.745691	0.948450
478.115588	0.945343
478.485427	0.941851
478.855207	0.936900
479.224928	0.931087
479.594591	0.926632
479.964194	0.924797
480.333739	0.923122
480.703226	0.918524
481.072653	0.915792
481.442022	0.909404
481.811333	0.904423
482.180584	0.902288
482.549777	0.897970
482.918912	0.894536
483.287988	0.889651
483.657005	0.885003
484.025964	0.882121
484.394864	0.877020
484.763706	0.871877
485.132489	0.867994
485.501213	0.862789
485.869879	0.858353
486.238487	0.852340
486.607036	0.848390
486.975527	0.841879
487.343959	0.836431
487.712333	0.829777
488.080648	0.825120
488.448905	0.818031
488.817104	0.813157
489.185244	0.805771
489.553326	0.797633
489.921350	0.787312
490.289315	0.773113
490.657222	0.766975
491.025070	0.760183
491.392861	0.754867
491.760593	0.750946
492.128267	0.746994
492.495883	0.742088
492.863440	0.737724
493.230939	0.732328
493.598380	0.726033
493.965763	0.718635
494.333088	0.714070
494.700354	0.705680
495.067563	0.700269
495.434713	0.692871
495.801805	0.685582
496.168839	0.679011
496.535815	0.671077
496.902733	0.665797
497.269593	0.658023
497.636395	0.651136
498.003139	0.643111
498.369825	0.638264
498.736453	0.628963
499.103023	0.623001
499.469535	0.615216
499.835989	0.609109
500.202385	0.601959
500.568723	0.596753
500.935003	0.588133
501.301226	0.580670
501.667390	0.572979
502.033497	0.564121
502.399546	0.559872
502.765537	0.553196
503.131470	0.545460
503.497345	0.535963
503.863163	0.535726
504.228923	0.523608
504.594625	0.516515
504.960269	0.513790
505.325856	0.504163
505.691385	0.500247
506.056856	0.491805
506.422270	0.484347
506.787625	0.481411
507.152924	0.471946
507.518164	0.466966
507.883347	0.461461
508.248472	0.457173
508.613540	0.447790
508.978550	0.443703
509.343503	0.438208
509.708398	0.430839
510.073236	0.423471
510.438016	0.418801
510.802738	0.413577
511.167403	0.407659
511.532010	0.403706
511.896561	0.396036
512.261053	0.390178
512.625488	0.386360
512.989866	0.381673
513.354186	0.377449
513.718449	0.373546
514.082655	0.366794
514.446803	0.363857
514.810894	0.358029
515.174927	0.355461
515.538904	0.351274
515.902822	0.343941
516.266684	0.342419
516.630488	0.339144
516.994235	0.334586
517.357925	0.329303
517.721558	0.324442
518.085133	0.320263
518.448651	0.317367
518.812112	0.315956
519.175516	0.311633
519.538863	0.306891
519.902152	0.305165
520.265385	0.298845
520.628560	0.298048
520.991678	0.295293
521.354739	0.291931
521.717743	0.290537
522.080690	0.288271
522.443580	0.283029
522.806413	0.281478
523.169189	0.278806
523.531908	0.275292
523.894569	0.276523
524.257174	0.274454
524.619722	0.270209
524.982213	0.269665
525.344647	0.266525
525.707025	0.265442
526.069345	0.261888
526.431608	0.261846
526.793815	0.258302
527.155964	0.260775
527.518057	0.258428
527.880093	0.257964
528.242072	0.255194
528.603995	0.255553
528.965860	0.255860
529.327669	0.253457
529.689421	0.253714
530.051117	0.253435
530.412755	0.250084
530.774337	0.251476
531.135862	0.250351
531.497331	0.249322
531.858743	0.251087
532.220098	0.247128
532.581396	0.249123
532.942638	0.249000
533.303824	0.248851
533.664953	0.248157
534.026025	0.249118
534.387040	0.246690
534.747999	0.245983
535.108902	0.244455
535.469748	0.248902
535.830537	0.246441
536.191270	0.246446
536.551947	0.245368
536.912567	0.245334
537.273131	0.246695
537.633638	0.246203
537.994089	0.246305
538.354483	0.247286
538.714821	0.244185
539.075103	0.243438
539.435328	0.244163
539.795497	0.247674
540.155609	0.243791
540.515665	0.242154
540.875665	0.247227
541.235609	0.245643
541.595496	0.245727
541.955328	0.241781
542.315102	0.244394
542.674821	0.245408
543.034483	0.244964
543.394090	0.244898
543.753640	0.246217
544.113134	0.241278
544.472571	0.244339
544.831953	0.241271
545.191278	0.245357
545.550548	0.244689
545.909761	0.241372
546.268918	0.241907
546.628019	0.240143
546.987064	0.242832
547.346053	0.244349
547.704986	0.242360
548.063863	0.242471
548.422684	0.242792
548.781449	0.244580
549.140158	0.242231
549.498811	0.244885
549.857408	0.247727
550.215949	0.242715
550.574434	0.245492
550.932864	0.243445
551.291237	0.242035
551.649555	0.243324
552.007817	0.243076
552.366022	0.243947
552.724173	0.243975
553.082267	0.244415
553.440305	0.241159
553.798288	0.245816
554.156215	0.242310
554.514086	0.242623
554.871902	0.245765
555.229661	0.245114
555.587365	0.245538
555.945014	0.247934
556.302606	0.244896
556.660143	0.247424
557.017625	0.243873
557.375050	0.245974
557.732421	0.243318
558.089735	0.245086
558.446994	0.245313
558.804197	0.244340
559.161345	0.244532
559.518437	0.247747
559.875474	0.245533
560.232455	0.244936
560.589381	0.246061
560.946251	0.245783
561.303065	0.243634
561.659825	0.245101
562.016528	0.246577
562.373177	0.249439
562.729770	0.246717
563.086307	0.248620
563.442789	0.246685
563.799216	0.249240
564.155587	0.248230
564.511904	0.249104
564.868164	0.249416
565.224370	0.249151
565.580520	0.250706
565.936615	0.250550
566.292654	0.253758
566.648638	0.250414
567.004567	0.251456
567.360441	0.252093
567.716260	0.254317
568.072023	0.251983
568.427732	0.252781
568.783385	0.255135
569.138982	0.253287
569.494525	0.253023
569.850013	0.255952
570.205445	0.254141
570.560823	0.256417
570.916145	0.258743
571.271412	0.256951
571.626625	0.258388
571.981782	0.258829
572.336884	0.259724
572.691931	0.259310
573.046923	0.260499
573.401860	0.261715
573.756743	0.263325
574.111570	0.262167
574.466342	0.262966
574.821059	0.261830
575.175722	0.265003
575.530330	0.264342
575.884882	0.265000
576.239380	0.266935
576.593823	0.266879
576.948211	0.266772
577.302544	0.270110
577.656823	0.269439
578.011047	0.269556
578.365216	0.270426
578.719330	0.272438
579.073389	0.272089
579.427394	0.273263
579.781344	0.273708
580.135239	0.275787
580.489080	0.275213
580.842866	0.278240
581.196597	0.278146
581.550273	0.277011
581.903895	0.277819
582.257463	0.275937
582.610975	0.279388
582.964434	0.278756
583.317837	0.281192
583.671186	0.281588
584.024481	0.281722
584.377721	0.284214
584.730906	0.284851
585.084037	0.284159
585.437113	0.285638
585.790135	0.285420
586.143103	0.287858
586.496016	0.289302
586.848874	0.286903
587.201679	0.287530
587.554428	0.290707
587.907124	0.289817
588.259765	0.289932
588.612352	0.290372
588.964884	0.294521
589.317362	0.293944
589.669786	0.293716
590.022155	0.292415
590.374470	0.291753
590.726731	0.294186
591.078937	0.298781
591.431090	0.294879
591.783188	0.299069
592.135232	0.299605
592.487222	0.299634
592.839157	0.297864
593.191038	0.300000
593.542866	0.301837
593.894639	0.305591
594.246358	0.303099
594.598022	0.302861
594.949633	0.306551
595.301190	0.307281
595.652692	0.306531
596.004141	0.302735
596.355535	0.310753
596.706876	0.311273
597.058162	0.314003
597.409395	0.310826
597.760573	0.308795
598.111698	0.311706
598.462768	0.312575
598.813785	0.313980
599.164748	0.314818
599.515657	0.315250
599.866511	0.318504
600.217312	0.313576
600.568060	0.319478
600.918753	0.315586
601.269392	0.316387
601.619978	0.319488
601.970510	0.317334
602.320988	0.317321
602.671412	0.315281
603.021783	0.317470
603.372100	0.318835
603.722363	0.318564
604.072572	0.319496
604.422728	0.319443
604.772830	0.321396
605.122878	0.321120
605.472872	0.321548
605.822813	0.319761
606.172701	0.322379
606.522534	0.320215
606.872314	0.319781
607.222041	0.320804
607.571714	0.318868
607.921333	0.320519
608.270899	0.320184
608.620411	0.317091
608.969870	0.321054
609.319276	0.321166
609.668627	0.320912
610.017926	0.319202
610.367171	0.317855
610.716362	0.318518
611.065500	0.318949
611.414585	0.317648
611.763616	0.318234
612.112594	0.318890
612.461518	0.318015
612.810389	0.315814
613.159207	0.317918
613.507971	0.319847
613.856682	0.315607
614.205340	0.317385
614.553945	0.314014
614.902496	0.318090
615.250994	0.315715
615.599439	0.316765
615.947830	0.315644
616.296169	0.317256
616.644454	0.316407
616.992686	0.316383
617.340864	0.314468
617.688990	0.318079
618.037063	0.314790
618.385082	0.316294
618.733048	0.313282
619.080961	0.315771
619.428821	0.315041
619.776628	0.314753
620.124382	0.316614
620.472083	0.317042
620.819731	0.316201
621.167326	0.320245
621.514868	0.320036
621.862357	0.324070
622.209793	0.323933
622.557176	0.325808
622.904506	0.326947
623.251783	0.329360
623.599007	0.331533
623.946179	0.331330
624.293297	0.333297
624.640363	0.336699
624.987376	0.337459
625.334336	0.339765
625.681243	0.342370
626.028097	0.343277
626.374899	0.344152
626.721647	0.344192
627.068343	0.347267
627.414987	0.348938
627.761577	0.350555
628.108115	0.349026
628.454600	0.353890
628.801032	0.350769
629.147412	0.353420
629.493739	0.354221
629.840014	0.356674
630.186236	0.354320
630.532405	0.359908
630.878521	0.357432
631.224585	0.359735
631.570597	0.362832
631.916556	0.361406
632.262462	0.361929
632.608316	0.363656
632.954117	0.364965
633.299866	0.365457
633.645562	0.366085
633.991206	0.370024
634.336797	0.373404
634.682336	0.375235
635.027823	0.377257
635.373257	0.377690
635.718639	0.381165
636.063968	0.380414
636.409245	0.386012
636.754470	0.386463
637.099642	0.388783
637.444762	0.392131
637.789829	0.391481
638.134845	0.395295
638.479808	0.396025
638.824719	0.395462
639.169577	0.399022
639.514383	0.398849
639.859137	0.402753
640.203839	0.402734
640.548489	0.403701
640.893086	0.404420
641.237632	0.406083
641.582125	0.404788
641.926566	0.405937
642.270955	0.406814
642.615292	0.406620
642.959576	0.405600
643.303809	0.406289
643.647990	0.405680
643.992118	0.406320
644.336195	0.409916
644.680219	0.407845
645.024192	0.408642
645.368112	0.402370
645.711981	0.401191
646.055797	0.396732
646.399562	0.399125
646.743274	0.391245
647.086935	0.388588
647.430544	0.388953
647.774101	0.387982
648.117606	0.387587
648.461059	0.388082
648.804460	0.390562
649.147810	0.395367
649.491108	0.397282
649.834354	0.398661
650.177548	0.404028
650.520690	0.409248
650.863781	0.410872
651.206820	0.410310
651.549807	0.414565
651.892742	0.418679
652.235626	0.418388
652.578458	0.419302
652.921238	0.425290
653.263967	0.423018
653.606644	0.426535
653.949269	0.425949
654.291843	0.430464
654.634365	0.426965
654.976836	0.430394
655.319255	0.430449
655.661622	0.432402
656.003938	0.432387
656.346203	0.435258
656.688416	0.433129
657.030577	0.436374
657.372687	0.438328
657.714746	0.439390
658.056753	0.436224
658.398708	0.439801
658.740612	0.441320
659.082465	0.437177
659.424266	0.438085
659.766016	0.437403
660.107715	0.439744
660.449362	0.439291
660.790958	0.439106
661.132503	0.440055
661.473996	0.438006
661.815438	0.438777
662.156829	0.438929
662.498168	0.439297
662.839456	0.440685
663.180693	0.438232
663.521879	0.438354
663.863013	0.439176
664.204097	0.437995
664.545129	0.434624
664.886110	0.435439
665.227040	0.432416
665.567918	0.435137
665.908746	0.433473
666.249522	0.432805
666.590248	0.433970
666.930922	0.431860
667.271545	0.430791
667.612118	0.431381
667.952639	0.433024
668.293109	0.431578
668.633528	0.434049
668.973896	0.434180
669.314213	0.434888
669.654480	0.436159
669.994695	0.436438
670.334859	0.437437
670.674973	0.437766
671.015035	0.437688
671.355047	0.437397
671.695008	0.438729
672.034918	0.440447
672.374777	0.440400
672.714585	0.441051
673.054342	0.440602
673.394049	0.440775
673.733705	0.439332
674.073310	0.439740
674.412864	0.443373
674.752368	0.443333
675.091820	0.443257
675.431223	0.448133
675.770574	0.447536
676.109875	0.450817
676.449125	0.450916
676.788324	0.453240
677.127473	0.458323
677.466571	0.457910
677.805619	0.459593
678.144616	0.461099
678.483562	0.462914
678.822458	0.464981
679.161303	0.466521
679.500098	0.466371
679.838842	0.468303
680.177535	0.467957
680.516179	0.466842
680.854771	0.465641
681.193314	0.459086
681.531805	0.450438
681.870247	0.438623
682.208638	0.430981
682.546978	0.430382
682.885268	0.432104
683.223508	0.438392
683.561697	0.441953
683.899836	0.444781
684.237925	0.447680
684.575963	0.450456
684.913951	0.453406
685.251889	0.449366
685.589776	0.450769
685.927614	0.453721
686.265401	0.448205
686.603137	0.449499
686.940824	0.443583
687.278460	0.441869
687.616046	0.441239
687.953582	0.435878
688.291068	0.437412
688.628504	0.433395
688.965889	0.435478
689.303224	0.439758
689.640510	0.443420
689.977745	0.449449
690.314930	0.457443
690.652065	0.461668
690.989150	0.469208
691.326185	0.475630
691.663170	0.480034
692.000105	0.486770
692.336990	0.494253
692.673825	0.497215
693.010610	0.503368
693.347345	0.509217
693.684030	0.510579
694.020665	0.515403
694.357251	0.523836
694.693786	0.523768
695.030272	0.527783
695.366707	0.530909
695.703093	0.534640
696.039429	0.532339
696.375716	0.534113
696.711952	0.536517
697.048139	0.538154
697.384276	0.540875
697.720363	0.538941
698.056400	0.538304
698.392388	0.543596
698.728326	0.546399
699.064214	0.549764
699.400053	0.550166
699.735842	0.553861
700.071581	0.556580
700.407270	0.559435
700.742910	0.562563
701.078501	0.568623
701.414042	0.568509
701.749533	0.570953
702.084974	0.580383
702.420366	0.572388
702.755709	0.580473
703.091002	0.588006
703.426246	0.581742
703.761440	0.587545
704.096584	0.592240
704.431679	0.589353
704.766725	0.590741
705.101721	0.593034
705.436668	0.588661
705.771565	0.596204
706.106413	0.593270
706.441212	0.587963
706.775961	0.587044
707.110661	0.589845
707.445311	0.586930
707.779913	0.583298
708.114465	0.581804
708.448967	0.577972
708.783421	0.571031
709.117825	0.565080
709.452180	0.565261
709.786485	0.559037
710.120742	0.549341
710.454949	0.551256
710.789107	0.544268
711.123216	0.534340
711.457275	0.536144
711.791286	0.526776
712.125247	0.526047
712.459159	0.536566
712.793023	0.529334
713.126837	0.533285
713.460602	0.533679
713.794318	0.543427
714.127985	0.542201
714.461602	0.552367
714.795171	0.554929
715.128691	0.562868
715.462162	0.570205
715.795584	0.575770
716.128957	0.579305
716.462281	0.585546
716.795556	0.589054
717.128782	0.594591
717.461960	0.603924
717.795088	0.602566
718.128167	0.608460
718.461198	0.617001
718.794180	0.617303
719.127113	0.619638
719.459997	0.623966
719.792833	0.630162
720.125619	0.631454
720.458357	0.636749
720.791046	0.636802
721.123686	0.640185
721.456278	0.646699
721.788821	0.643846
722.121315	0.648731
722.453761	0.652437
722.786158	0.650074
723.118506	0.647052
723.450805	0.654462
723.783056	0.650407
724.115259	0.648591
724.447412	0.647582
724.779518	0.649273
725.111574	0.648043
725.443582	0.643723
725.775542	0.645127
726.107453	0.637875
726.439315	0.637255
726.771129	0.636646
727.102895	0.629717
727.434612	0.622418
727.766281	0.620751
728.097901	0.619437
728.429473	0.619732
728.760996	0.617818
729.092471	0.618059
729.423897	0.622186
729.755276	0.620914
730.086606	0.620804
730.417887	0.615969
730.749120	0.606693
731.080305	0.597157
731.411442	0.593894
731.742530	0.598273
732.073570	0.596973
732.404562	0.589563
732.735506	0.591470
733.066401	0.595660
733.397249	0.605533
733.728048	0.616661
734.058798	0.628766
734.389501	0.639480
734.720156	0.648711
735.050762	0.657093
735.381320	0.657880
735.711831	0.667319
736.042293	0.672160
736.372707	0.667558
736.703073	0.671821
737.033391	0.675472
737.363661	0.671519
737.693883	0.666580
738.024056	0.666197
738.354182	0.666122
738.684260	0.655464
739.014290	0.651760
739.344272	0.651852
739.674207	0.645966
740.004093	0.645041
740.333931	0.645697
740.663722	0.646248
740.993464	0.646410
741.323159	0.649983
741.652806	0.654986
741.982405	0.660370
742.311956	0.664558
742.641460	0.666528
742.970915	0.670542
743.300323	0.677422
743.629683	0.684602
743.958996	0.685611
744.288260	0.690505
744.617477	0.696427
744.946647	0.698458
745.275768	0.703474
745.604842	0.702687
745.933869	0.713688
746.262847	0.713987
746.591778	0.706277
746.920662	0.713449
747.249498	0.720194
747.578286	0.710705
747.907027	0.706431
748.235720	0.707976
748.564365	0.702827
748.892963	0.702505
749.221514	0.705574
749.550017	0.711017
749.878473	0.710923
750.206881	0.717102
750.535242	0.719210
750.863555	0.717165
751.191821	0.719048
751.520039	0.722586
751.848210	0.727499
752.176334	0.719344
752.504411	0.718708
752.832440	0.726540
753.160421	0.730492
753.488356	0.729223
753.816243	0.725738
754.144082	0.734528
754.471875	0.738121
754.799620	0.733109
755.127318	0.735503
755.454969	0.735091
755.782572	0.734478
756.110129	0.739350
756.437638	0.741997
756.765100	0.738626
757.092515	0.736518
757.419882	0.735128
757.747203	0.741001
758.074477	0.739628
758.401703	0.736471
758.728882	0.731674
759.056014	0.729752
759.383099	0.730155
759.710138	0.730836
760.037129	0.727524
760.364073	0.721834
760.690970	0.724418
761.017820	0.729590
761.344623	0.725085
761.671379	0.716466
761.998088	0.704673
762.324751	0.682564
762.651366	0.641073
762.977935	0.574491
763.304456	0.523131
763.630931	0.513890
763.957359	0.552396
764.283740	0.596948
764.610074	0.623932
764.936362	0.653673
765.262602	0.681092
765.588796	0.702200
765.914943	0.718915
766.241044	0.737896
766.567097	0.743993
766.893104	0.753108
767.219064	0.761039
767.544978	0.766285
767.870845	0.779835
768.196665	0.783605
768.522438	0.780808
768.848165	0.783267
769.173846	0.791063
769.499479	0.795790
769.825066	0.799689
770.150607	0.804889
770.476101	0.799573
770.801548	0.800999
771.126949	0.812736
771.452303	0.815936
771.777611	0.814992
772.102872	0.813664
772.428087	0.820023
772.753256	0.823448
773.078378	0.824884
773.403453	0.833996
773.728482	0.838027
774.053465	0.831463
774.378401	0.835281
774.703291	0.843695
775.028135	0.843026
775.352932	0.845124
775.677683	0.848485
776.002388	0.848091
776.327046	0.846865
776.651658	0.850565
776.976224	0.854227
777.300743	0.854747
777.625216	0.856094
777.949643	0.858305
778.274024	0.857701
778.598359	0.859525
778.922647	0.858340
779.246889	0.859158
779.571086	0.863076
779.895236	0.866182
780.219339	0.862304
780.543397	0.859602
780.867409	0.858213
781.191374	0.860859
781.515294	0.861968
781.839167	0.861918
782.162995	0.862909
782.486776	0.861448
782.810511	0.862364
783.134201	0.865544
783.457844	0.862870
783.781441	0.866445
784.104993	0.872414
784.428498	0.872371
784.751958	0.866999
785.075372	0.870787
785.398739	0.873936
785.722061	0.869717
786.045337	0.865834
786.368568	0.871297
786.691752	0.873461
787.014891	0.859782
787.337983	0.850286
787.661030	0.842712
787.984031	0.825356
788.306987	0.812808
788.629897	0.815493
788.952760	0.818926
789.275579	0.823716
789.598351	0.838161
789.921078	0.850525
790.243759	0.853791
790.566395	0.858763
790.888984	0.865970
791.211529	0.871147
791.534027	0.873083
791.856480	0.875371
792.178888	0.881271
792.501249	0.883259
792.823566	0.885279
793.145836	0.884228
793.468062	0.886041
793.790241	0.886671
794.112375	0.884685
794.434464	0.879636
794.756507	0.879760
795.078505	0.879158
795.400457	0.873650
795.722364	0.861774
796.044226	0.854503
796.366042	0.854079
796.687812	0.857641
797.009538	0.853806
797.331218	0.856400
797.652852	0.861583
797.974442	0.866332
798.295986	0.865567
798.617484	0.868987
798.938938	0.872466
799.260346	0.877111
799.581709	0.879157
799.903026	0.880683
800.224299	0.882702
800.545526	0.885939
800.866708	0.889826
801.187845	0.893054
801.508936	0.893796
801.829983	0.891455
802.150984	0.894619
802.471940	0.898814
802.792851	0.899629
803.113717	0.898786
803.434538	0.897460
803.755314	0.899846
804.076045	0.901205
804.396731	0.901640
804.717372	0.900833
805.037967	0.903636
805.358518	0.900328
805.679024	0.898822
805.999485	0.898796
806.319901	0.897604
806.640272	0.899882
806.960598	0.897754
807.280879	0.895919
807.601115	0.893396
807.921306	0.898023
808.241453	0.897181
808.561554	0.894938
808.881611	0.895215
809.201623	0.898338
809.521590	0.897413
809.841513	0.899415
810.161390	0.897762
810.481223	0.899269
810.801011	0.902654
811.120755	0.903650
811.440453	0.903151
811.760107	0.902448
812.079716	0.900907
812.399281	0.904651
812.718801	0.907812
813.038276	0.909079
813.357707	0.907953
813.677093	0.904625
813.996434	0.907667
814.315731	0.910091
814.634983	0.911135
814.954191	0.909584
815.273354	0.906579
815.592473	0.903151
815.911547	0.902571
816.230577	0.900366
816.549562	0.898434
816.868502	0.897504
817.187399	0.895393
817.506250	0.889382
817.825058	0.891563
818.143821	0.888198
818.462539	0.882242
818.781213	0.875423
819.099843	0.863135
819.418429	0.848705
819.736970	0.833008
820.055466	0.813590
820.373919	0.787264
820.692327	0.755238
821.010691	0.720541
821.329011	0.644890
821.647286	0.531691
821.965517	0.418772
822.283704	0.376615
822.601847	0.377991
822.919945	0.413832
823.237999	0.446452
823.556010	0.492221
823.873976	0.547713
824.191897	0.597432
824.509775	0.639649
824.827609	0.684562
825.145398	0.707243
825.463144	0.709477
825.780845	0.692885
826.098502	0.673472
826.416116	0.628962
826.733685	0.585162
827.051210	0.577429
827.368692	0.591514
827.686129	0.628605
828.003522	0.679886
828.320872	0.727714
828.638177	0.771166
828.955439	0.802168
829.272656	0.824157
829.589830	0.841403
829.906960	0.857252
830.224046	0.868890
830.541088	0.879938
830.858086	0.883413
831.175041	0.889456
831.491952	0.887525
831.808819	0.885207
832.125642	0.879061
832.442421	0.863055
832.759157	0.843538
833.075849	0.798595
833.392497	0.735382
833.709101	0.694155
834.025662	0.704024
834.342179	0.734986
834.658653	0.773008
834.975083	0.809425
835.291469	0.835161
835.607811	0.857273
835.924110	0.872887
836.240366	0.889050
836.556578	0.904132
836.872746	0.910913
837.188871	0.916717
837.504952	0.922190
837.820990	0.925384
838.136984	0.928504
838.452935	0.931112
838.768842	0.933546
839.084706	0.926507
839.400526	0.901117
839.716303	0.861031
840.032037	0.839147
840.347727	0.843143
840.663373	0.861132
840.978977	0.882309
841.294537	0.904437
841.610054	0.920099
841.925527	0.927417
842.240957	0.934235
842.556344	0.940710
842.871687	0.946896
843.186987	0.951548
843.502244	0.951212
843.817458	0.952309
844.132629	0.956566
844.447756	0.961945
844.762840	0.961949
845.077881	0.960120
845.392879	0.960314
845.707833	0.963076
846.022745	0.965090
846.337613	0.965164
846.652438	0.967670
846.967221	0.964754
847.281960	0.966310
847.596656	0.968447
847.911309	0.966971
848.225919	0.969004
848.540485	0.968450
848.855009	0.970315
849.169490	0.968910
849.483928	0.970820
849.798323	0.970038
850.112675	0.971744
850.426984	0.969698
850.741251	0.970715
851.055474	0.971155
851.369654	0.968441
851.683792	0.970229
851.997887	0.970739
852.311938	0.971149
852.625947	0.970462
852.939914	0.968802
853.253837	0.970119
853.567718	0.970357
853.881555	0.971719
854.195350	0.968698
854.509103	0.970486
854.822812	0.970425
855.136479	0.970691
855.450103	0.969995
855.763685	0.970041
856.077224	0.969314
856.390720	0.971494
856.704173	0.971523
857.017584	0.969419
857.330953	0.967066
857.644278	0.968727
857.957561	0.969361
858.270802	0.969055
858.584000	0.968540
858.897155	0.966982
859.210268	0.969094
859.523339	0.969049
859.836367	0.970697
860.149352	0.972532
860.462295	0.969596
860.775195	0.970908
861.088054	0.969919
861.400869	0.970761
861.713642	0.970347
862.026373	0.971103
862.339062	0.970800
862.651708	0.968942
862.964312	0.969240
863.276873	0.970889
863.589392	0.969874
863.901869	0.968166
864.214303	0.965353
864.526696	0.964490
864.839045	0.964487
865.151353	0.962648
865.463619	0.963393
865.775842	0.962996
866.088023	0.963284
866.400162	0.963860
866.712258	0.963047
867.024313	0.962768
867.336325	0.964616
867.648296	0.963217
867.960224	0.963981
868.272110	0.963810
868.583954	0.964851
868.895755	0.965059
869.207515	0.962832
869.519233	0.960859
869.830909	0.963088
870.142542	0.964212
870.454134	0.963391
870.765684	0.963168
871.077191	0.959776
871.388657	0.960053
871.700081	0.958693
872.011463	0.959457
872.322803	0.959153
872.634101	0.957884
872.945357	0.956058
873.256571	0.955190
873.567744	0.955226
873.878874	0.954811
874.189963	0.953781
874.501010	0.951764
874.812015	0.949571
875.122979	0.952635
875.433900	0.955834
875.744780	0.954730
876.055618	0.951999
876.366415	0.951473
876.677169	0.952007
876.987882	0.953952
877.298554	0.952642
877.609183	0.949214
877.919771	0.947238
878.230317	0.945499
878.540822	0.942675
878.851285	0.937795
879.161707	0.929662
879.472087	0.917978
879.782425	0.901777
880.092722	0.868748
880.402977	0.818687
880.713191	0.758886
881.023363	0.701737
881.333494	0.668749
881.643583	0.640527
881.953631	0.640755
882.263637	0.668921
882.573602	0.708282
882.883526	0.733681
883.193408	0.755291
883.503248	0.777737
883.813048	0.803997
884.122806	0.832951
884.432522	0.856152
884.742197	0.874787
885.051831	0.885468
885.361424	0.895712
885.670975	0.906784
885.980485	0.916796
886.289954	0.922856
886.599382	0.927532
886.908768	0.930795
887.218113	0.936976
887.527417	0.941355
887.836680	0.944057
888.145901	0.946203
888.455082	0.948661
888.764221	0.952140
889.073319	0.954439
889.382376	0.954693
889.691392	0.955036
890.000366	0.954101
890.309300	0.955936
890.618193	0.954795
890.927044	0.953198
891.235855	0.953295
891.544625	0.953519
891.853353	0.953893
892.162041	0.952879
892.470687	0.944631
892.779293	0.939404
893.087858	0.936846
893.396381	0.929213
893.704864	0.916116
894.013306	0.892929
894.321707	0.866842
894.630068	0.853617
894.938387	0.848381
895.246665	0.850615
895.554903	0.862063
895.863100	0.874458
896.171256	0.890241
896.479371	0.910932
896.787446	0.922332
897.095480	0.928155
897.403473	0.930557
897.711425	0.934744
898.019336	0.942558
898.327207	0.944987
898.635038	0.947849
898.942827	0.947179
899.250576	0.950630
899.558284	0.953948
899.865952	0.956661
900.173579	0.956533
900.481165	0.957832
900.788711	0.961994
901.096216	0.962837
901.403681	0.963489
901.711105	0.964130
902.018489	0.966579
902.325832	0.963021
902.633135	0.964723
902.940397	0.957341
903.247619	0.945816
903.554800	0.921724
903.861941	0.883240
904.169041	0.850011
904.476101	0.832943
904.783121	0.833193
905.090100	0.849571
905.397039	0.869527
905.703938	0.890263
906.010796	0.910718
906.317614	0.926762
906.624391	0.936868
906.931129	0.945748
907.237826	0.953171
907.544483	0.961259
907.851099	0.965070
908.157675	0.968863
908.464211	0.970569
908.770707	0.974415
909.077163	0.975503
909.383578	0.974857
909.689954	0.976255
909.996289	0.976397
910.302584	0.978428
910.608839	0.980007
910.915054	0.979080
911.221229	0.979478
911.527363	0.977918
911.833458	0.978236
912.139513	0.978919
912.445527	0.977096
912.751502	0.975363
913.057436	0.974303
913.363331	0.971917
913.669186	0.968232
913.975000	0.962366
914.280775	0.957736
914.586510	0.951055
914.892205	0.938317
915.197859	0.917661
915.503475	0.891043
915.809050	0.872529
916.114585	0.868347
916.420081	0.865896
916.725536	0.863208
917.030952	0.869311
917.336328	0.882001
917.641665	0.896606
917.946961	0.912612
918.252218	0.923153
918.557435	0.931665
918.862612	0.940376
919.167750	0.944945
919.472848	0.948481
919.777906	0.955072
920.082925	0.959878
920.387904	0.963234
920.692843	0.965662
920.997743	0.965480
921.302603	0.968757
921.607423	0.971059
921.912204	0.973575
922.216946	0.973151
922.521647	0.975372
922.826310	0.976918
923.130932	0.977888
923.435516	0.979397
923.740059	0.979654
924.044564	0.979887
924.349028	0.981497
924.653454	0.982807
924.957840	0.985954
925.262186	0.984542
925.566493	0.984955
925.870761	0.985148
926.174989	0.986778
926.479178	0.987782
926.783328	0.988302
927.087438	0.989283
927.391509	0.989126
927.695541	0.990905
927.999533	0.990083
928.303486	0.990387
928.607400	0.991526
928.911275	0.990712
929.215110	0.990260
929.518906	0.991428
929.822663	0.990334
930.126381	0.991454
930.430060	0.991099
930.733699	0.990476
931.037299	0.990820
931.340861	0.991795
931.644383	0.991000
931.947866	0.990203
932.251309	0.992159
932.554714	0.990643
932.858080	0.991041
933.161407	0.990593
933.464694	0.992010
933.767943	0.990224
934.071153	0.991759
934.374323	0.992093
934.677455	0.992013
934.980548	0.992133
935.283602	0.991289
935.586617	0.991743
935.889593	0.992370
936.192530	0.991224
936.495428	0.991508
936.798287	0.992019
937.101108	0.991390
937.403890	0.990156
937.706632	0.990123
938.009336	0.987937
938.312002	0.986621
938.614628	0.985787
938.917216	0.983444
939.219765	0.982398
939.522275	0.984440
939.824747	0.983507
940.127179	0.983246
940.429573	0.985374
940.731929	0.985336
941.034246	0.985104
941.336524	0.985767
941.638763	0.987029
941.940964	0.988183
942.243126	0.987832
942.545250	0.988314
942.847335	0.988633
943.149381	0.988289
943.451389	0.988875
943.753359	0.988595
944.055290	0.991448
944.357182	0.991106
944.659036	0.989191
944.960851	0.990717
945.262628	0.990152
945.564367	0.991557
945.866067	0.991209
946.167729	0.990465
946.469352	0.991094
946.770937	0.988808
947.072484	0.990842
947.373992	0.990677
947.675462	0.991400
947.976893	0.991309
948.278286	0.991200
948.579641	0.992473
948.880958	0.991425
949.182236	0.992298
949.483476	0.992180
949.784678	0.990742
950.085841	0.991976
950.386967	0.992179
950.688054	0.991937
950.989103	0.991859
951.290114	0.989792
951.591087	0.990066
951.892021	0.991395
952.192917	0.990491
952.493776	0.989630
952.794596	0.987654
953.095378	0.988925
953.396122	0.987502
953.696828	0.988575
953.997496	0.990862
954.298126	0.991643
954.598718	0.990312
954.899272	0.992366
955.199788	0.990585
955.500266	0.993318
955.800706	0.994512
956.101108	0.994276
956.401472	0.994103
956.701798	0.994551
957.002087	0.993165
957.302337	0.993961
957.602550	0.995702
957.902724	0.995126
958.202861	0.995547
958.502960	0.995990
958.803022	0.993843
959.103045	0.997316
959.403031	0.996208
959.702979	0.995288
960.002889	0.995749
960.302762	0.994462
960.602596	0.996145
960.902393	0.994869
961.202153	0.997522
961.501875	0.995892
961.801559	0.996115
962.101205	0.996559
962.400814	0.997422
962.700385	0.996786
962.999918	0.996668
963.299414	0.996615
963.598873	0.995928
963.898293	0.995619
964.197677	0.996726
964.497022	0.997316
964.796331	0.997054
965.095601	0.997113
965.394835	0.996611
965.694030	0.997650
965.993189	0.998082
966.292309	0.997175
966.591393	0.997775
966.890439	0.996960
967.189447	0.996471
967.488419	0.997963
967.787353	0.995593
968.086249	0.996819
968.385108	0.997342
968.683930	0.997028
968.982714	0.996876
969.281462	0.997713
969.580172	0.996656
969.878844	0.997321
970.177480	0.996039
970.476078	0.997583
970.774639	0.997823
971.073162	0.998227
971.371649	0.995715
971.670098	0.996316
971.968510	0.996851
972.266885	0.995929
972.565223	0.996851
972.863524	0.995285
973.161788	0.996557
973.460014	0.997523
973.758204	0.996671
974.056356	0.996993
974.354471	0.994281
974.652550	0.996723
974.950591	0.995967
975.248595	0.996592
975.546563	0.996488
975.844493	0.998089
976.142386	0.996812
976.440243	0.998742
976.738062	0.997699
977.035845	0.998128
977.333590	0.996704
977.631299	0.998030
977.928971	0.996986
978.226606	0.997469
978.524204	0.995320
978.821765	0.998873
979.119290	0.996466
979.416777	0.996650
979.714228	0.998514
980.011642	0.997566
980.309020	0.998606
980.606360	0.996714
980.903664	0.998412
981.200931	0.996675
981.498162	0.996241
981.795356	0.994878
982.092513	0.994477
982.389633	0.994679
982.686717	0.991442
982.983764	0.991730
983.280775	0.991433
983.577749	0.990775
983.874686	0.992891
984.171587	0.991767
984.468451	0.993642
984.765279	0.995386
985.062070	0.993940
985.358824	0.995410
985.655543	0.995450
985.952224	0.996086
986.248869	0.996606
986.545478	0.996616
986.842050	0.998569
987.138586	0.995555
987.435086	0.997702
987.731549	0.999290
988.027975	0.997827
988.324366	0.997395
988.620719	0.997758
988.917037	0.996091
989.213318	0.997793
989.509563	0.998932
989.805772	0.998260
990.101944	0.998429
990.398080	0.996945
990.694180	0.998938
990.990244	0.997482
991.286271	0.998317
991.582262	0.998512
991.878217	0.998589
992.174136	0.999040
992.470019	0.999133
992.765865	0.999221
993.061676	0.997839
993.357450	0.997897
993.653188	0.997159
993.948890	0.996279
994.244556	0.998328
994.540186	0.997053
994.835780	0.996892
995.131337	0.997867
995.426859	0.997481
995.722345	0.996697
996.017795	0.996068
996.313208	0.996327
996.608586	0.994963
996.903928	0.996059
997.199234	0.995977
997.494504	0.997023
997.789738	0.995765
998.084936	0.996087
998.380099	0.997196
998.675225	0.997898
998.970316	0.998475
999.265371	0.998716
999.560390	0.997803
999.855373	0.999318
1000.150320	0.999040
1000.445232	0.998492
1000.740108	0.998042
1001.034948	0.998790
1001.329752	0.999065
1001.624521	0.997901
1001.919254	0.997855
1002.213951	0.998084
1002.508613	0.998491
1002.803239	0.999340
1003.097829	0.998922
1003.392384	0.999192
1003.686903	0.999130
1003.981386	0.998012
1004.275834	0.998578
1004.570246	0.999772
1004.864623	0.998752
1005.158964	1.000195
1005.453270	0.996758
1005.747540	0.997560
1006.041775	0.998400
1006.335974	0.999822
1006.630138	0.999413
1006.924266	0.999182
1007.218359	1.001121
1007.512416	0.999092
1007.806438	0.999699
1008.100425	1.000356
1008.394376	0.998566
1008.688292	0.999069
1008.982172	0.999776
1009.276017	0.999495
1009.569827	0.997841
1009.863602	0.998380
1010.157341	1.000003
1010.451045	0.999386
1010.744714	0.998847
1011.038347	0.998885
1011.331945	0.999511
1011.625508	0.996926
1011.919036	0.998485
1012.212528	0.998885
1012.505986	0.997697
1012.799408	0.998995
1013.092795	0.999254
1013.386147	0.998457
1013.679464	1.000044
1013.972745	0.998807
1014.265992	0.997945
1014.559204	0.998605
1014.852380	0.999575
1015.145521	0.998660
1015.438628	0.998539
1015.731699	0.998843
1016.024736	0.998110
1016.317737	0.998328
1016.610703	1.000376
1016.903635	0.999357
1017.196531	0.998634
1017.489393	0.999462
1017.782219	0.999007
1018.075011	0.999126
1018.367768	0.998901
1018.660490	0.999899
1018.953177	0.999899
1019.245829	0.999899
