Dividing Wavelength (nm)	Counts (n)	Blue Motor Position (mm): 0.000000	Red Motor Position (mm): 37.200000	
326.493990	1.000977
326.888308	1.000977
327.282561	1.000977
327.676750	1.000900
328.070874	0.998786
328.464933	1.000640
328.858929	1.000749
329.252859	1.000187
329.646726	0.999718
330.040528	0.999840
330.434265	0.999779
330.827938	1.000693
331.221547	1.000454
331.615091	1.001029
332.008571	1.001104
332.401986	0.999895
332.795338	1.000371
333.188625	0.999000
333.581847	1.000339
333.975006	0.999534
334.368100	0.998737
334.761129	1.000248
335.154095	1.000406
335.546996	0.999173
335.939833	0.997213
336.332606	0.996569
336.725315	0.997999
337.117960	0.997961
337.510540	0.997493
337.903056	0.996864
338.295508	0.996735
338.687896	0.997184
339.080220	0.996688
339.472480	0.997690
339.864676	0.996419
340.256807	0.997481
340.648875	0.997992
341.040879	0.997038
341.432818	0.996680
341.824694	0.997934
342.216506	0.998254
342.608253	0.997155
342.999937	0.996502
343.391557	0.997773
343.783113	0.996803
344.174605	0.997997
344.566033	0.997525
344.957397	0.997285
345.348697	0.996897
345.739934	0.997224
346.131106	0.997661
346.522215	0.995228
346.913260	0.996925
347.304241	0.996438
347.695159	0.996383
348.086012	0.995900
348.476802	0.996011
348.867528	0.998064
349.258191	0.996391
349.648789	0.998135
350.039324	0.996740
350.429796	0.997350
350.820203	0.996876
351.210548	0.997649
351.600828	0.996867
351.991045	0.997466
352.381198	0.996144
352.771288	0.997587
353.161314	0.997100
353.551276	0.998965
353.941175	0.996360
354.331010	0.997065
354.720782	0.996561
355.110490	0.997480
355.500135	0.997302
355.889717	0.997100
356.279235	0.998523
356.668689	0.996371
357.058080	0.996789
357.447408	0.997723
357.836672	0.997561
358.225873	0.998302
358.615010	0.996843
359.004084	0.997688
359.393095	0.997519
359.782043	0.996569
360.170927	0.999186
360.559748	0.997932
360.948505	0.996508
361.337199	0.996317
361.725830	0.997140
362.114398	0.997134
362.502903	0.998562
362.891344	0.998415
363.279722	0.997104
363.668037	0.997012
364.056289	0.996849
364.444478	0.997989
364.832603	0.997665
365.220665	0.995810
365.608665	0.997506
365.996601	0.997182
366.384474	0.997698
366.772284	0.997173
367.160031	0.996217
367.547715	0.996529
367.935336	0.997292
368.322893	0.997076
368.710388	0.995965
369.097820	0.996987
369.485189	0.996635
369.872495	0.995951
370.259738	0.996120
370.646918	0.998569
371.034035	0.997880
371.421090	0.997218
371.808081	0.997052
372.195010	0.998374
372.581875	0.997792
372.968678	0.997604
373.355418	0.998399
373.742096	0.997905
374.128710	0.998173
374.515262	0.997148
374.901751	0.998378
375.288177	0.997914
375.674540	0.998900
376.060841	0.996974
376.447079	0.997351
376.833254	0.998191
377.219367	0.998627
377.605417	0.998029
377.991404	0.997558
378.377329	0.998250
378.763191	0.998405
379.148991	0.999278
379.534727	0.997975
379.920402	0.997556
380.306013	0.999530
380.691563	0.998675
381.077049	0.997233
381.462474	0.997723
381.847835	0.997988
382.233134	0.997887
382.618371	0.998901
383.003545	0.997677
383.388657	0.998535
383.773706	0.999084
384.158693	0.999542
384.543618	0.998054
384.928480	0.999518
385.313280	0.997872
385.698017	0.999545
386.082692	0.999870
386.467305	0.997477
386.851856	0.998448
387.236344	0.998241
387.620770	0.998049
388.005133	0.998341
388.389435	0.999571
388.773674	0.999112
389.157851	0.999464
389.541965	0.998207
389.926018	0.998414
390.310008	0.999317
390.693936	0.998043
391.077802	1.000281
391.461606	0.998886
391.845348	0.999037
392.229027	0.999851
392.612645	0.998878
392.996200	1.000080
393.379694	0.998280
393.763125	0.999584
394.146494	0.999215
394.529801	0.998756
394.913047	0.999099
395.296230	0.999610
395.679351	0.998964
396.062410	0.997965
396.445408	0.998402
396.828343	0.999569
397.211217	0.998705
397.594028	0.999112
397.976778	0.999087
398.359466	0.998749
398.742092	0.998621
399.124656	0.998143
399.507158	0.997959
399.889598	0.998640
400.271977	0.998924
400.654294	0.999762
401.036549	1.000044
401.418742	0.999228
401.800874	0.997618
402.182944	0.999545
402.564952	0.998067
402.946898	0.999485
403.328783	0.999797
403.710606	0.998654
404.092367	0.999053
404.474067	0.999295
404.855705	0.998824
405.237282	0.999768
405.618797	0.998066
406.000250	0.998751
406.381642	0.999491
406.762972	0.999804
407.144240	1.000663
407.525447	1.000185
407.906593	0.999747
408.287677	0.998851
408.668700	0.999461
409.049661	0.999174
409.430560	1.000057
409.811399	0.998726
410.192176	0.998799
410.572891	0.999326
410.953545	0.998997
411.334138	0.998110
411.714669	0.999794
412.095139	0.998937
412.475547	0.999443
412.855894	0.999923
413.236180	0.999998
413.616405	0.998920
413.996568	0.999901
414.376670	0.999697
414.756711	0.998477
415.136691	0.999929
415.516609	0.998663
415.896466	0.999403
416.276262	0.998055
416.655997	1.000113
417.035670	0.998758
417.415283	0.999466
417.794834	0.998681
418.174324	0.999572
418.553753	0.999458
418.933121	0.999014
419.312428	0.999848
419.691674	0.998463
420.070859	0.999487
420.449983	0.999467
420.829045	0.998684
421.208047	1.000274
421.586988	1.000803
421.965867	0.999052
422.344686	0.999789
422.723444	0.999481
423.102141	0.998895
423.480777	0.999555
423.859352	0.999584
424.237866	0.998983
424.616319	0.998796
424.994712	0.999754
425.373044	1.000050
425.751314	0.999941
426.129524	0.999068
426.507673	0.999484
426.885762	1.000134
427.263789	0.999663
427.641756	0.999648
428.019662	0.999757
428.397508	0.998933
428.775292	0.999070
429.153016	0.999225
429.530679	1.000649
429.908282	0.999623
430.285824	0.999079
430.663305	0.998725
431.040726	0.999191
431.418086	1.000973
431.795385	0.999917
432.172624	0.998964
432.549802	1.000059
432.926920	1.000011
433.303977	0.999038
433.680974	1.000497
434.057910	0.998846
434.434786	1.000744
434.811601	0.999315
435.188355	0.999123
435.565050	0.998238
435.941683	0.999267
436.318257	1.001241
436.694770	0.999036
437.071222	1.000363
437.447614	1.000139
437.823946	0.999679
438.200218	0.999831
438.576429	0.999301
438.952580	0.999187
439.328670	0.999390
439.704700	1.000072
440.080670	0.999724
440.456580	0.999370
440.832429	0.998897
441.208218	0.999373
441.583947	0.999520
441.959616	0.999767
442.335224	0.998723
442.710773	1.000071
443.086261	0.999854
443.461689	0.999242
443.837057	1.000075
444.212365	0.999685
444.587612	1.000227
444.962800	0.999256
445.337927	0.999825
445.712995	0.999894
446.088002	1.001223
446.462949	1.000271
446.837837	0.998939
447.212664	1.000113
447.587431	1.000445
447.962139	0.999791
448.336786	1.000346
448.711374	0.999756
449.085901	0.999768
449.460369	0.999991
449.834776	0.999355
450.209124	1.000190
450.583412	1.000013
450.957640	0.999544
451.331808	0.999528
451.705917	0.999381
452.079965	0.999099
452.453954	0.999168
452.827883	0.999229
453.201752	1.000026
453.575562	1.000552
453.949311	1.000307
454.323001	1.000053
454.696632	0.999870
455.070202	0.999794
455.443713	0.999395
455.817164	0.999969
456.190556	0.999646
456.563888	0.999189
456.937160	0.999874
457.310373	0.999275
457.683526	0.998979
458.056619	0.999419
458.429653	0.999818
458.802628	0.998735
459.175542	1.000025
459.548398	1.000222
459.921194	0.999665
460.293930	0.999928
460.666607	0.999484
461.039224	0.998995
461.411782	0.999727
461.784280	0.998867
462.156719	0.999979
462.529099	0.999997
462.901419	0.999602
463.273680	0.999614
463.645882	1.000110
464.018024	0.999889
464.390106	0.999506
464.762130	1.000393
465.134094	1.000100
465.505999	1.000247
465.877845	1.000607
466.249631	1.000357
466.621358	1.000092
466.993026	0.999760
467.364634	0.999885
467.736184	1.000447
468.107674	0.999547
468.479105	0.999122
468.850477	0.999587
469.221790	0.999188
469.593043	1.000332
469.964238	1.000617
470.335373	0.999423
470.706449	0.999997
471.077467	1.000520
471.448425	0.999372
471.819324	1.001021
472.190164	0.998957
472.560945	0.999880
472.931667	0.999833
473.302330	0.999134
473.672934	0.999507
474.043479	0.999678
474.413965	0.999285
474.784393	1.000100
475.154761	0.999451
475.525070	0.999401
475.895321	1.000018
476.265513	0.999989
476.635645	0.999879
477.005719	1.000461
477.375734	0.999423
477.745691	0.999722
478.115588	0.999617
478.485427	1.000558
478.855207	0.999941
479.224928	1.000338
479.594591	0.999822
479.964194	1.000271
480.333739	1.000312
480.703226	0.999978
481.072653	1.000235
481.442022	1.000789
481.811333	0.999655
482.180584	1.000438
482.549777	0.999550
482.918912	0.999807
483.287988	1.000350
483.657005	1.000201
484.025964	1.000192
484.394864	1.000623
484.763706	1.000329
485.132489	1.000366
485.501213	0.999991
485.869879	0.999809
486.238487	1.000310
486.607036	1.000130
486.975527	0.999357
487.343959	1.000326
487.712333	0.999699
488.080648	0.999712
488.448905	1.000357
488.817104	1.000318
489.185244	1.000842
489.553326	1.000105
489.921350	0.999664
490.289315	1.000007
490.657222	1.000507
491.025070	1.000264
491.392861	1.000340
491.760593	1.000170
492.128267	0.999893
492.495883	0.999468
492.863440	0.999902
493.230939	0.999890
493.598380	0.999322
493.965763	0.999375
494.333088	1.000273
494.700354	0.999123
495.067563	1.000296
495.434713	0.999891
495.801805	0.999896
496.168839	0.999416
496.535815	0.999283
496.902733	0.999205
497.269593	0.998917
497.636395	0.999156
498.003139	0.999549
498.369825	1.000799
498.736453	0.999702
499.103023	0.999236
499.469535	0.999943
499.835989	0.999393
500.202385	0.999441
500.568723	0.999495
500.935003	1.000021
501.301226	0.999883
501.667390	0.999592
502.033497	0.999910
502.399546	1.000446
502.765537	0.998930
503.131470	0.999674
503.497345	0.999329
503.863163	1.000170
504.228923	0.999482
504.594625	1.000054
504.960269	0.999948
505.325856	0.999552
505.691385	0.998982
506.056856	0.999242
506.422270	0.999672
506.787625	0.999767
507.152924	0.999660
507.518164	0.998940
507.883347	0.999579
508.248472	0.999495
508.613540	0.999871
508.978550	0.999733
509.343503	0.998521
509.708398	0.999595
510.073236	0.999659
510.438016	1.000029
510.802738	0.999201
511.167403	0.999295
511.532010	0.999588
511.896561	0.999080
512.261053	1.000037
512.625488	0.998620
512.989866	0.998816
513.354186	0.998531
513.718449	0.998683
514.082655	0.999066
514.446803	0.999243
514.810894	0.998961
515.174927	0.999477
515.538904	0.998741
515.902822	0.998429
516.266684	0.999364
516.630488	0.999669
516.994235	0.998197
517.357925	0.998709
517.721558	0.998732
518.085133	0.997485
518.448651	0.999493
518.812112	0.998561
519.175516	0.997597
519.538863	0.998954
519.902152	0.997897
520.265385	0.997449
520.628560	0.997786
520.991678	0.998194
521.354739	0.998785
521.717743	0.998262
522.080690	0.998086
522.443580	0.997566
522.806413	0.997962
523.169189	0.996903
523.531908	0.996742
523.894569	0.997499
524.257174	0.997405
524.619722	0.997478
524.982213	0.997404
525.344647	0.997137
525.707025	0.996458
526.069345	0.995433
526.431608	0.995738
526.793815	0.996480
527.155964	0.995779
527.518057	0.995914
527.880093	0.995642
528.242072	0.995218
528.603995	0.994842
528.965860	0.995052
529.327669	0.994542
529.689421	0.993821
530.051117	0.993947
530.412755	0.993266
530.774337	0.993731
531.135862	0.992891
531.497331	0.992999
531.858743	0.992239
532.220098	0.992521
532.581396	0.991699
532.942638	0.991476
533.303824	0.990795
533.664953	0.991010
534.026025	0.989879
534.387040	0.989484
534.747999	0.989288
535.108902	0.988560
535.469748	0.988018
535.830537	0.987550
536.191270	0.986922
536.551947	0.985522
536.912567	0.986177
537.273131	0.985404
537.633638	0.984291
537.994089	0.984413
538.354483	0.983357
538.714821	0.982615
539.075103	0.981666
539.435328	0.980844
539.795497	0.980449
540.155609	0.978937
540.515665	0.978548
540.875665	0.977512
541.235609	0.976669
541.595496	0.975977
541.955328	0.974699
542.315102	0.974515
542.674821	0.973083
543.034483	0.971525
543.394090	0.970611
543.753640	0.969730
544.113134	0.968702
544.472571	0.968460
544.831953	0.966860
545.191278	0.965789
545.550548	0.964803
545.909761	0.962400
546.268918	0.961816
546.628019	0.960585
546.987064	0.958865
547.346053	0.958112
547.704986	0.956116
548.063863	0.954918
548.422684	0.953216
548.781449	0.951955
549.140158	0.949769
549.498811	0.949166
549.857408	0.947389
550.215949	0.945082
550.574434	0.943905
550.932864	0.941310
551.291237	0.940655
551.649555	0.937700
552.007817	0.936211
552.366022	0.934216
552.724173	0.932426
553.082267	0.931274
553.440305	0.927230
553.798288	0.926521
554.156215	0.923545
554.514086	0.921666
554.871902	0.919230
555.229661	0.916695
555.587365	0.914897
555.945014	0.914235
556.302606	0.909460
556.660143	0.908675
557.017625	0.905057
557.375050	0.903014
557.732421	0.900466
558.089735	0.897691
558.446994	0.895908
558.804197	0.892600
559.161345	0.890489
559.518437	0.888596
559.875474	0.883847
560.232455	0.881124
560.589381	0.879623
560.946251	0.874877
561.303065	0.873627
561.659825	0.869941
562.016528	0.867055
562.373177	0.866052
562.729770	0.860753
563.086307	0.859669
563.442789	0.855837
563.799216	0.851812
564.155587	0.849085
564.511904	0.846415
564.868164	0.842903
565.224370	0.840849
565.580520	0.835570
565.936615	0.834563
566.292654	0.830507
566.648638	0.827064
567.004567	0.823344
567.360441	0.821687
567.716260	0.817897
568.072023	0.814103
568.427732	0.809836
568.783385	0.809082
569.138982	0.803551
569.494525	0.800117
569.850013	0.797893
570.205445	0.793034
570.560823	0.791248
570.916145	0.787374
571.271412	0.783083
571.626625	0.779800
571.981782	0.776520
572.336884	0.773123
572.691931	0.770616
573.046923	0.764650
573.401860	0.761816
573.756743	0.758686
574.111570	0.754190
574.466342	0.752072
574.821059	0.747169
575.175722	0.744467
575.530330	0.741068
575.884882	0.737374
576.239380	0.734101
576.593823	0.731334
576.948211	0.726053
577.302544	0.725323
577.656823	0.720453
578.011047	0.717403
578.365216	0.713178
578.719330	0.710163
579.073389	0.706043
579.427394	0.703955
579.781344	0.700905
580.135239	0.696938
580.489080	0.694106
580.842866	0.690874
581.196597	0.686768
581.550273	0.683082
581.903895	0.678907
582.257463	0.674767
582.610975	0.671721
582.964434	0.668378
583.317837	0.665982
583.671186	0.663193
584.024481	0.659011
584.377721	0.656832
584.730906	0.652932
585.084037	0.648683
585.437113	0.647235
585.790135	0.641623
586.143103	0.639864
586.496016	0.638108
586.848874	0.632590
587.201679	0.629477
587.554428	0.627399
587.907124	0.622935
588.259765	0.619795
588.612352	0.616136
588.964884	0.615989
589.317362	0.611783
589.669786	0.608231
590.022155	0.604600
590.374470	0.599256
590.726731	0.598194
591.078937	0.596529
591.431090	0.590034
591.783188	0.590423
592.135232	0.585923
592.487222	0.584072
592.839157	0.578672
593.191038	0.577451
593.542866	0.575181
593.894639	0.574096
594.246358	0.569313
594.598022	0.565802
594.949633	0.564536
595.301190	0.562105
595.652692	0.558744
596.004141	0.551777
596.355535	0.554718
596.706876	0.551502
597.058162	0.550043
597.409395	0.545204
597.760573	0.540490
598.111698	0.540052
598.462768	0.536437
598.813785	0.535006
599.164748	0.531884
599.515657	0.529936
599.866511	0.528373
600.217312	0.522655
600.568060	0.523989
600.918753	0.517776
601.269392	0.515994
601.619978	0.514785
601.970510	0.510509
602.320988	0.508625
602.671412	0.503370
603.021783	0.502649
603.372100	0.501165
603.722363	0.497438
604.072572	0.496268
604.422728	0.493295
604.772830	0.492305
605.122878	0.489049
605.472872	0.487326
605.822813	0.482984
606.172701	0.483303
606.522534	0.478267
606.872314	0.476252
607.222041	0.473888
607.571714	0.470175
607.921333	0.469020
608.270899	0.465885
608.620411	0.460942
608.969870	0.461945
609.319276	0.459595
609.668627	0.457063
610.017926	0.453746
610.367171	0.449785
610.716362	0.448747
611.065500	0.446808
611.414585	0.443350
611.763616	0.442181
612.112594	0.440225
612.461518	0.437621
612.810389	0.434200
613.159207	0.433823
613.507971	0.433612
613.856682	0.428249
614.205340	0.427511
614.553945	0.422762
614.902496	0.424781
615.250994	0.421096
615.599439	0.420150
615.947830	0.417417
616.296169	0.416974
616.644454	0.415012
616.992686	0.413365
617.340864	0.410284
617.688990	0.411759
618.037063	0.407476
618.385082	0.407892
618.733048	0.403176
619.080961	0.404330
619.428821	0.402449
619.776628	0.399838
620.124382	0.400721
620.472083	0.398776
620.819731	0.396977
621.167326	0.398704
621.514868	0.397008
621.862357	0.399404
622.209793	0.397427
622.557176	0.397070
622.904506	0.396543
623.251783	0.397580
623.599007	0.397551
623.946179	0.395909
624.293297	0.396396
624.640363	0.398658
624.987376	0.397197
625.334336	0.399159
625.681243	0.399610
626.028097	0.399245
626.374899	0.398926
626.721647	0.397522
627.068343	0.400179
627.414987	0.399795
627.761577	0.400354
628.108115	0.398064
628.454600	0.401487
628.801032	0.397770
629.147412	0.399900
629.493739	0.398712
629.840014	0.400671
630.186236	0.397717
630.532405	0.401745
630.878521	0.398504
631.224585	0.400321
631.570597	0.403088
631.916556	0.400486
632.262462	0.400144
632.608316	0.401599
632.954117	0.401905
633.299866	0.401573
633.645562	0.401485
633.991206	0.404648
634.336797	0.406424
634.682336	0.407969
635.027823	0.408499
635.373257	0.408314
635.718639	0.411049
636.063968	0.409392
636.409245	0.414179
636.754470	0.413822
637.099642	0.415655
637.444762	0.418207
637.789829	0.417029
638.134845	0.419188
638.479808	0.419903
638.824719	0.418958
639.169577	0.423077
639.514383	0.420726
639.859137	0.424579
640.203839	0.423801
640.548489	0.424229
640.893086	0.424769
641.237632	0.425951
641.582125	0.423898
641.926566	0.424915
642.270955	0.424378
642.615292	0.424672
642.959576	0.423429
643.303809	0.423728
643.647990	0.422882
643.992118	0.423173
644.336195	0.425939
644.680219	0.424016
645.024192	0.424483
645.368112	0.418160
645.711981	0.416949
646.055797	0.412192
646.399562	0.414420
646.743274	0.406288
647.086935	0.403576
647.430544	0.403580
647.774101	0.401673
648.117606	0.401408
648.461059	0.401525
648.804460	0.403641
649.147810	0.408373
649.491108	0.409607
649.834354	0.411085
650.177548	0.415531
650.520690	0.420607
650.863781	0.421618
651.206820	0.420786
651.549807	0.425459
651.892742	0.428632
652.235626	0.428322
652.578458	0.428834
652.921238	0.434335
653.263967	0.432015
653.606644	0.436259
653.949269	0.435269
654.291843	0.439309
654.634365	0.435495
654.976836	0.439198
655.319255	0.439080
655.661622	0.440701
656.003938	0.440444
656.346203	0.443104
656.688416	0.440243
657.030577	0.444039
657.372687	0.445592
657.714746	0.446342
658.056753	0.443203
658.398708	0.447010
658.740612	0.447776
659.082465	0.443951
659.424266	0.444364
659.766016	0.443695
660.107715	0.446280
660.449362	0.445519
660.790958	0.445792
661.132503	0.446351
661.473996	0.443892
661.815438	0.444453
662.156829	0.444527
662.498168	0.445419
662.839456	0.446463
663.180693	0.444407
663.521879	0.443853
663.863013	0.444527
664.204097	0.443403
664.545129	0.440238
664.886110	0.440108
665.227040	0.437549
665.567918	0.440295
665.908746	0.438322
666.249522	0.437985
666.590248	0.439167
666.930922	0.437003
667.271545	0.435988
667.612118	0.435875
667.952639	0.437819
668.293109	0.435923
668.633528	0.438257
668.973896	0.438426
669.314213	0.438915
669.654480	0.440325
669.994695	0.441156
670.334859	0.441620
670.674973	0.441479
671.015035	0.441335
671.355047	0.441881
671.695008	0.442440
672.034918	0.444358
672.374777	0.443882
672.714585	0.444673
673.054342	0.445363
673.394049	0.445421
673.733705	0.442358
674.073310	0.443593
674.412864	0.446836
674.752368	0.447182
675.091820	0.447260
675.431223	0.451315
675.770574	0.451310
676.109875	0.454586
676.449125	0.454018
676.788324	0.456368
677.127473	0.461641
677.466571	0.461274
677.805619	0.463123
678.144616	0.463743
678.483562	0.465613
678.822458	0.467931
679.161303	0.469360
679.500098	0.469804
679.838842	0.471581
680.177535	0.470943
680.516179	0.469541
680.854771	0.468465
681.193314	0.461790
681.531805	0.453052
681.870247	0.441844
682.208638	0.434345
682.546978	0.433513
682.885268	0.435016
683.223508	0.441223
683.561697	0.444867
683.899836	0.447454
684.237925	0.451081
684.575963	0.452994
684.913951	0.456276
685.251889	0.452264
685.589776	0.454297
685.927614	0.456718
686.265401	0.450676
686.603137	0.452069
686.940824	0.446195
687.278460	0.445143
687.616046	0.443607
687.953582	0.438625
688.291068	0.440073
688.628504	0.435864
688.965889	0.438203
689.303224	0.441986
689.640510	0.445841
689.977745	0.451680
690.314930	0.459757
690.652065	0.463937
690.989150	0.471753
691.326185	0.477917
691.663170	0.482421
692.000105	0.489363
692.336990	0.496701
692.673825	0.499161
693.010610	0.506068
693.347345	0.510796
693.684030	0.511962
694.020665	0.517225
694.357251	0.526293
694.693786	0.525723
695.030272	0.529556
695.366707	0.533494
695.703093	0.536697
696.039429	0.534559
696.375716	0.535647
696.711952	0.538857
697.048139	0.541155
697.384276	0.542736
697.720363	0.540949
698.056400	0.540616
698.392388	0.545584
698.728326	0.548411
699.064214	0.551213
699.400053	0.552581
699.735842	0.555589
700.071581	0.558383
700.407270	0.561835
700.742910	0.563753
701.078501	0.570212
701.414042	0.570410
701.749533	0.573462
702.084974	0.582499
702.420366	0.574822
702.755709	0.582357
703.091002	0.589970
703.426246	0.582989
703.761440	0.589621
704.096584	0.593937
704.431679	0.591166
704.766725	0.592945
705.101721	0.594883
705.436668	0.590499
705.771565	0.598367
706.106413	0.594793
706.441212	0.589928
706.775961	0.588316
707.110661	0.591535
707.445311	0.587409
707.779913	0.585328
708.114465	0.583827
708.448967	0.580529
708.783421	0.573335
709.117825	0.566864
709.452180	0.568099
709.786485	0.561047
710.120742	0.551062
710.454949	0.553360
710.789107	0.545601
711.123216	0.536777
711.457275	0.538132
711.791286	0.529070
712.125247	0.528116
712.459159	0.538399
712.793023	0.531593
713.126837	0.535402
713.460602	0.536204
713.794318	0.545420
714.127985	0.544332
714.461602	0.553919
714.795171	0.557480
715.128691	0.565135
715.462162	0.572650
715.795584	0.577859
716.128957	0.580772
716.462281	0.587251
716.795556	0.591579
717.128782	0.596021
717.461960	0.605499
717.795088	0.603776
718.128167	0.610345
718.461198	0.617854
718.794180	0.619083
719.127113	0.621545
719.459997	0.625718
719.792833	0.631081
720.125619	0.633153
720.458357	0.638316
720.791046	0.638939
721.123686	0.641071
721.456278	0.648504
721.788821	0.645453
722.121315	0.649425
722.453761	0.653981
722.786158	0.651700
723.118506	0.648299
723.450805	0.656416
723.783056	0.652338
724.115259	0.649756
724.447412	0.649954
724.779518	0.650783
725.111574	0.649285
725.443582	0.645167
725.775542	0.647702
726.107453	0.639806
726.439315	0.639469
726.771129	0.637328
727.102895	0.632197
727.434612	0.624302
727.766281	0.622537
728.097901	0.621681
728.429473	0.621584
728.760996	0.619916
729.092471	0.619661
729.423897	0.623754
729.755276	0.623352
730.086606	0.622737
730.417887	0.617477
730.749120	0.607990
731.080305	0.598373
731.411442	0.595699
731.742530	0.600264
732.073570	0.599532
732.404562	0.591591
732.735506	0.593095
733.066401	0.597836
733.397249	0.607203
733.728048	0.617927
734.058798	0.629992
734.389501	0.640936
734.720156	0.650842
735.050762	0.658355
735.381320	0.659458
735.711831	0.668905
736.042293	0.673529
736.372707	0.669556
736.703073	0.674539
737.033391	0.676305
737.363661	0.672764
737.693883	0.668150
738.024056	0.668530
738.354182	0.667985
738.684260	0.657530
739.014290	0.653419
739.344272	0.654605
739.674207	0.647488
740.004093	0.646493
740.333931	0.647354
740.663722	0.647117
740.993464	0.647950
741.323159	0.651729
741.652806	0.656963
741.982405	0.661686
742.311956	0.665975
742.641460	0.668521
742.970915	0.672582
743.300323	0.679670
743.629683	0.686186
743.958996	0.687804
744.288260	0.691337
744.617477	0.697632
744.946647	0.700312
745.275768	0.704966
745.604842	0.704381
745.933869	0.714586
746.262847	0.715033
746.591778	0.709060
746.920662	0.715234
747.249498	0.721248
747.578286	0.712006
747.907027	0.708658
748.235720	0.709183
748.564365	0.704666
748.892963	0.703999
749.221514	0.707311
749.550017	0.712279
749.878473	0.711425
750.206881	0.717698
750.535242	0.719360
750.863555	0.719226
751.191821	0.720639
751.520039	0.724048
751.848210	0.728372
752.176334	0.721135
752.504411	0.719507
752.832440	0.728208
753.160421	0.731515
753.488356	0.729821
753.816243	0.727592
754.144082	0.735472
754.471875	0.740060
754.799620	0.735742
755.127318	0.736871
755.454969	0.735480
755.782572	0.735180
756.110129	0.740088
756.437638	0.743100
756.765100	0.739562
757.092515	0.737838
757.419882	0.736468
757.747203	0.742830
758.074477	0.741895
758.401703	0.739096
758.728882	0.734378
759.056014	0.732849
759.383099	0.730912
759.710138	0.732263
760.037129	0.729312
760.364073	0.723105
760.690970	0.725229
761.017820	0.731498
761.344623	0.727006
761.671379	0.718113
761.998088	0.706558
762.324751	0.683918
762.651366	0.642628
762.977935	0.576899
763.304456	0.524990
763.630931	0.516103
763.957359	0.554071
764.283740	0.598785
764.610074	0.625165
764.936362	0.656004
765.262602	0.681824
765.588796	0.703516
765.914943	0.722443
766.241044	0.738368
766.567097	0.745317
766.893104	0.754744
767.219064	0.761291
767.544978	0.767027
767.870845	0.780983
768.196665	0.784525
768.522438	0.782915
768.848165	0.784262
769.173846	0.793479
769.499479	0.798066
769.825066	0.801248
770.150607	0.806134
770.476101	0.800614
770.801548	0.802129
771.126949	0.813943
771.452303	0.817284
771.777611	0.817446
772.102872	0.814790
772.428087	0.821381
772.753256	0.823984
773.078378	0.826216
773.403453	0.835392
773.728482	0.839483
774.053465	0.833429
774.378401	0.836643
774.703291	0.844680
775.028135	0.844079
775.352932	0.845679
775.677683	0.849350
776.002388	0.850092
776.327046	0.849424
776.651658	0.852775
776.976224	0.855462
777.300743	0.856239
777.625216	0.858135
777.949643	0.858957
778.274024	0.860089
778.598359	0.861763
778.922647	0.859727
779.246889	0.860839
779.571086	0.863837
779.895236	0.867078
780.219339	0.863717
780.543397	0.860809
780.867409	0.858925
781.191374	0.861604
781.515294	0.863343
781.839167	0.862273
782.162995	0.864876
782.486776	0.862513
782.810511	0.862075
783.134201	0.866364
783.457844	0.864257
783.781441	0.866775
784.104993	0.873149
784.428498	0.872839
784.751958	0.869107
785.075372	0.872094
785.398739	0.875141
785.722061	0.871312
786.045337	0.867160
786.368568	0.871664
786.691752	0.874546
787.014891	0.859589
787.337983	0.851289
787.661030	0.844546
787.984031	0.827508
788.306987	0.813621
788.629897	0.816311
788.952760	0.820982
789.275579	0.825136
789.598351	0.838780
789.921078	0.852673
790.243759	0.854199
790.566395	0.860006
790.888984	0.865887
791.211529	0.871959
791.534027	0.874768
791.856480	0.876504
792.178888	0.882340
792.501249	0.883865
792.823566	0.885330
793.145836	0.886391
793.468062	0.887348
793.790241	0.887178
794.112375	0.884600
794.434464	0.881381
794.756507	0.880643
795.078505	0.880018
795.400457	0.875386
795.722364	0.863442
796.044226	0.855340
796.366042	0.854334
796.687812	0.857907
797.009538	0.854636
797.331218	0.857186
797.652852	0.862093
797.974442	0.866970
798.295986	0.867356
798.617484	0.869995
798.938938	0.873807
799.260346	0.879181
799.581709	0.880989
799.903026	0.882564
800.224299	0.883993
800.545526	0.887154
800.866708	0.891385
801.187845	0.895222
801.508936	0.895024
801.829983	0.893451
802.150984	0.896110
802.471940	0.900661
802.792851	0.899912
803.113717	0.900595
803.434538	0.897923
803.755314	0.901213
804.076045	0.902896
804.396731	0.903226
804.717372	0.902705
805.037967	0.904861
805.358518	0.902506
805.679024	0.899133
805.999485	0.899120
806.319901	0.899958
806.640272	0.901434
806.960598	0.899904
807.280879	0.897006
807.601115	0.895260
807.921306	0.898732
808.241453	0.898536
808.561554	0.897037
808.881611	0.897173
809.201623	0.899059
809.521590	0.899337
809.841513	0.899370
810.161390	0.899259
810.481223	0.900678
810.801011	0.904062
811.120755	0.905844
811.440453	0.904642
811.760107	0.903889
812.079716	0.903006
812.399281	0.906296
812.718801	0.907826
813.038276	0.910222
813.357707	0.909450
813.677093	0.907256
813.996434	0.909616
814.315731	0.911725
814.634983	0.912009
814.954191	0.911225
815.273354	0.907066
815.592473	0.904734
815.911547	0.903574
816.230577	0.901883
816.549562	0.899674
816.868502	0.900519
817.187399	0.896031
817.506250	0.891984
817.825058	0.892894
818.143821	0.889717
818.462539	0.884675
818.781213	0.876249
819.099843	0.865375
819.418429	0.850363
819.736970	0.833805
820.055466	0.815269
820.373919	0.789690
820.692327	0.756863
821.010691	0.723105
821.329011	0.647943
821.647286	0.535449
821.965517	0.423129
822.283704	0.380338
822.601847	0.382601
822.919945	0.417796
823.237999	0.450497
823.556010	0.496250
823.873976	0.551380
824.191897	0.600645
824.509775	0.642542
824.827609	0.686676
825.145398	0.709787
825.463144	0.712233
825.780845	0.694817
826.098502	0.677248
826.416116	0.631428
826.733685	0.588944
827.051210	0.581166
827.368692	0.595075
827.686129	0.631154
828.003522	0.683454
828.320872	0.729459
828.638177	0.773154
828.955439	0.804766
829.272656	0.827222
829.589830	0.843608
829.906960	0.859132
830.224046	0.870614
830.541088	0.880517
830.858086	0.884588
831.175041	0.890962
831.491952	0.889880
831.808819	0.887349
832.125642	0.880880
832.442421	0.866278
832.759157	0.844978
833.075849	0.800531
833.392497	0.738009
833.709101	0.696800
834.025662	0.706626
834.342179	0.737533
834.658653	0.776344
834.975083	0.811294
835.291469	0.837163
835.607811	0.858725
835.924110	0.873281
836.240366	0.890684
836.556578	0.905715
836.872746	0.911419
837.188871	0.917421
837.504952	0.922487
837.820990	0.926275
838.136984	0.929484
838.452935	0.931747
838.768842	0.933339
839.084706	0.927397
839.400526	0.902574
839.716303	0.864725
840.032037	0.840335
840.347727	0.844872
840.663373	0.862341
840.978977	0.883229
841.294537	0.906322
841.610054	0.921890
841.925527	0.928916
842.240957	0.936064
842.556344	0.942327
842.871687	0.949353
843.186987	0.952428
843.502244	0.952554
843.817458	0.954199
844.132629	0.957758
844.447756	0.963283
844.762840	0.962482
845.077881	0.961317
845.392879	0.961187
845.707833	0.964359
846.022745	0.966877
846.337613	0.966615
846.652438	0.968080
846.967221	0.966106
847.281960	0.968075
847.596656	0.969108
847.911309	0.967519
848.225919	0.969477
848.540485	0.970143
848.855009	0.970511
849.169490	0.970467
849.483928	0.971146
849.798323	0.970527
850.112675	0.971952
850.426984	0.971363
850.741251	0.971881
851.055474	0.972369
851.369654	0.970095
851.683792	0.970418
851.997887	0.971877
852.311938	0.972286
852.625947	0.972191
852.939914	0.969921
853.253837	0.970806
853.567718	0.972036
853.881555	0.973264
854.195350	0.970631
854.509103	0.971262
854.822812	0.972864
855.136479	0.972006
855.450103	0.971580
855.763685	0.970077
856.077224	0.970529
856.390720	0.972432
856.704173	0.972346
857.017584	0.970699
857.330953	0.969019
857.644278	0.970281
857.957561	0.969622
858.270802	0.970847
858.584000	0.970188
858.897155	0.969022
859.210268	0.969258
859.523339	0.969881
859.836367	0.973061
860.149352	0.972824
860.462295	0.970349
860.775195	0.972567
861.088054	0.971769
861.400869	0.971253
861.713642	0.972462
862.026373	0.971714
862.339062	0.973502
862.651708	0.969676
862.964312	0.969656
863.276873	0.971275
863.589392	0.971646
863.901869	0.968863
864.214303	0.967903
864.526696	0.966740
864.839045	0.966012
865.151353	0.963181
865.463619	0.964575
865.775842	0.965345
866.088023	0.965044
866.400162	0.964530
866.712258	0.964517
867.024313	0.965172
867.336325	0.965051
867.648296	0.966044
867.960224	0.965745
868.272110	0.964145
868.583954	0.965453
868.895755	0.966339
869.207515	0.963515
869.519233	0.961806
869.830909	0.963486
870.142542	0.964414
870.454134	0.964285
870.765684	0.962824
871.077191	0.961395
871.388657	0.961608
871.700081	0.959718
872.011463	0.960701
872.322803	0.960948
872.634101	0.959440
872.945357	0.956965
873.256571	0.954969
873.567744	0.955629
873.878874	0.956871
874.189963	0.954617
874.501010	0.953586
874.812015	0.952282
875.122979	0.954194
875.433900	0.956822
875.744780	0.956661
876.055618	0.954808
876.366415	0.953052
876.677169	0.952795
876.987882	0.954146
877.298554	0.954728
877.609183	0.952736
877.919771	0.948369
878.230317	0.945440
878.540822	0.944259
878.851285	0.937731
879.161707	0.931517
879.472087	0.920954
879.782425	0.904143
880.092722	0.871921
880.402977	0.821841
880.713191	0.762837
881.023363	0.707233
881.333494	0.674143
881.643583	0.645985
881.953631	0.645609
882.263637	0.674410
882.573602	0.713077
882.883526	0.737704
883.193408	0.759394
883.503248	0.781197
883.813048	0.807275
884.122806	0.836906
884.432522	0.859304
884.742197	0.877499
885.051831	0.888191
885.361424	0.895931
885.670975	0.908359
885.980485	0.918582
886.289954	0.923900
886.599382	0.928545
886.908768	0.932555
887.218113	0.938352
887.527417	0.942417
887.836680	0.945437
888.145901	0.948116
888.455082	0.949302
888.764221	0.954039
889.073319	0.955816
889.382376	0.955744
889.691392	0.956177
890.000366	0.955090
890.309300	0.957347
890.618193	0.955772
890.927044	0.954545
891.235855	0.954869
891.544625	0.955602
891.853353	0.954683
892.162041	0.953148
892.470687	0.945132
892.779293	0.941392
893.087858	0.939170
893.396381	0.930735
893.704864	0.919112
894.013306	0.896843
894.321707	0.870641
894.630068	0.856434
894.938387	0.852075
895.246665	0.853643
895.554903	0.864153
895.863100	0.877149
896.171256	0.893882
896.479371	0.912833
896.787446	0.924843
897.095480	0.929713
897.403473	0.933144
897.711425	0.936536
898.019336	0.945234
898.327207	0.946998
898.635038	0.949115
898.942827	0.948413
899.250576	0.951815
899.558284	0.955088
899.865952	0.957206
900.173579	0.958272
900.481165	0.959154
900.788711	0.962587
901.096216	0.964827
901.403681	0.965280
901.711105	0.965346
902.018489	0.966861
902.325832	0.965658
902.633135	0.964613
902.940397	0.959294
903.247619	0.948630
903.554800	0.923882
903.861941	0.886436
904.169041	0.852709
904.476101	0.836134
904.783121	0.837921
905.090100	0.852666
905.397039	0.872553
905.703938	0.893126
906.010796	0.911783
906.317614	0.928878
906.624391	0.939190
906.931129	0.947338
907.237826	0.956135
907.544483	0.962205
907.851099	0.965833
908.157675	0.970813
908.464211	0.972389
908.770707	0.975889
909.077163	0.977954
909.383578	0.977289
909.689954	0.977495
909.996289	0.978751
910.302584	0.980352
910.608839	0.981327
910.915054	0.979976
911.221229	0.979066
911.527363	0.979290
911.833458	0.979341
912.139513	0.979819
912.445527	0.977875
912.751502	0.976251
913.057436	0.974007
913.363331	0.972801
913.669186	0.968545
913.975000	0.963804
914.280775	0.958642
914.586510	0.953905
914.892205	0.941209
915.197859	0.920948
915.503475	0.893907
915.809050	0.876478
916.114585	0.872019
916.420081	0.869385
916.725536	0.865796
917.030952	0.874035
917.336328	0.885527
917.641665	0.899476
917.946961	0.915141
918.252218	0.925338
918.557435	0.933578
918.862612	0.942278
919.167750	0.947547
919.472848	0.951743
919.777906	0.956289
920.082925	0.961517
920.387904	0.965240
920.692843	0.967019
920.997743	0.966939
921.302603	0.970504
921.607423	0.972601
921.912204	0.974540
922.216946	0.974989
922.521647	0.976101
922.826310	0.978308
923.130932	0.978485
923.435516	0.980285
923.740059	0.981385
924.044564	0.980992
924.349028	0.982799
924.653454	0.984989
924.957840	0.987600
925.262186	0.986487
925.566493	0.985039
925.870761	0.986877
926.174989	0.987849
926.479178	0.990667
926.783328	0.990244
927.087438	0.990857
927.391509	0.989566
927.695541	0.991288
927.999533	0.990901
928.303486	0.991017
928.607400	0.993167
928.911275	0.990905
929.215110	0.991926
929.518906	0.992674
929.822663	0.990810
930.126381	0.992582
930.430060	0.992417
930.733699	0.992194
931.037299	0.991923
931.340861	0.992673
931.644383	0.991471
931.947866	0.991103
932.251309	0.993012
932.554714	0.991779
932.858080	0.991714
933.161407	0.992185
933.464694	0.992843
933.767943	0.991655
934.071153	0.992731
934.374323	0.992933
934.677455	0.992420
934.980548	0.993964
935.283602	0.991876
935.586617	0.992109
935.889593	0.991470
936.192530	0.992559
936.495428	0.993530
936.798287	0.991937
937.101108	0.991607
937.403890	0.989505
937.706632	0.990806
938.009336	0.989165
938.312002	0.987211
938.614628	0.986558
938.917216	0.985371
939.219765	0.983252
939.522275	0.985780
939.824747	0.985730
940.127179	0.985494
940.429573	0.986341
940.731929	0.986381
941.034246	0.986560
941.336524	0.987652
941.638763	0.989034
941.940964	0.988307
942.243126	0.988390
942.545250	0.989166
942.847335	0.990740
943.149381	0.989400
943.451389	0.990007
943.753359	0.990178
944.055290	0.992793
944.357182	0.991968
944.659036	0.989132
944.960851	0.991384
945.262628	0.991703
945.564367	0.991326
945.866067	0.992015
946.167729	0.991326
946.469352	0.991552
946.770937	0.990235
947.072484	0.992627
947.373992	0.991358
947.675462	0.991841
947.976893	0.991616
948.278286	0.991466
948.579641	0.994700
948.880958	0.991999
949.182236	0.992780
949.483476	0.991896
949.784678	0.991747
950.085841	0.992428
950.386967	0.992748
950.688054	0.991732
950.989103	0.992216
951.290114	0.991407
951.591087	0.991290
951.892021	0.991653
952.192917	0.989816
952.493776	0.990196
952.794596	0.990932
953.095378	0.990096
953.396122	0.990407
953.696828	0.990717
953.997496	0.990891
954.298126	0.992069
954.598718	0.992171
954.899272	0.992750
955.199788	0.991371
955.500266	0.994146
955.800706	0.993360
956.101108	0.996056
956.401472	0.995164
956.701798	0.995251
957.002087	0.994289
957.302337	0.994293
957.602550	0.996381
957.902724	0.995291
958.202861	0.997041
958.502960	0.995974
958.803022	0.995404
959.103045	0.997306
959.403031	0.997021
959.702979	0.996044
960.002889	0.997248
960.302762	0.994780
960.602596	0.997359
960.902393	0.995794
961.202153	0.995974
961.501875	0.998391
961.801559	0.996655
962.101205	0.996869
962.400814	0.997283
962.700385	0.997034
962.999918	0.997202
963.299414	0.997567
963.598873	0.995857
963.898293	0.996534
964.197677	0.997099
964.497022	0.996276
964.796331	0.998688
965.095601	0.998475
965.394835	0.997709
965.694030	0.996912
965.993189	0.997900
966.292309	0.997315
966.591393	0.998335
966.890439	0.999085
967.189447	0.998168
967.488419	0.997902
967.787353	0.997873
968.086249	0.997794
968.385108	0.996739
968.683930	0.998960
968.982714	0.998281
969.281462	0.998628
969.580172	0.996929
969.878844	0.997775
970.177480	0.996967
970.476078	0.998068
970.774639	0.997129
971.073162	0.997847
971.371649	0.997649
971.670098	0.996956
971.968510	0.998326
972.266885	0.996706
972.565223	0.996665
972.863524	0.996255
973.161788	0.997417
973.460014	0.998858
973.758204	0.996105
974.056356	0.997244
974.354471	0.995639
974.652550	0.996225
974.950591	0.996678
975.248595	0.996877
975.546563	0.997566
975.844493	0.998448
976.142386	0.998181
976.440243	0.998381
976.738062	0.998266
977.035845	0.997523
977.333590	0.997755
977.631299	0.997813
977.928971	0.996982
978.226606	0.997204
978.524204	0.996783
978.821765	0.999533
979.119290	0.997313
979.416777	0.997985
979.714228	0.997039
980.011642	0.996143
980.309020	0.997777
980.606360	0.998068
980.903664	0.998737
981.200931	0.997803
981.498162	0.996238
981.795356	0.995933
982.092513	0.995111
982.389633	0.995829
982.686717	0.993073
982.983764	0.992298
983.280775	0.991773
983.577749	0.991344
983.874686	0.993468
984.171587	0.993041
984.468451	0.995574
984.765279	0.996222
985.062070	0.996174
985.358824	0.996771
985.655543	0.995904
985.952224	0.996346
986.248869	0.997348
986.545478	0.997493
986.842050	0.998056
987.138586	0.998016
987.435086	0.997360
987.731549	0.998677
988.027975	0.999099
988.324366	0.997725
988.620719	0.998175
988.917037	0.997022
989.213318	0.998812
989.509563	0.998986
989.805772	0.999188
990.101944	0.999188
990.398080	0.997260
990.694180	0.998013
990.990244	0.998460
991.286271	0.998706
991.582262	0.997876
991.878217	0.998085
992.174136	0.998319
992.470019	0.998660
992.765865	0.998293
993.061676	0.998389
993.357450	0.999128
993.653188	0.996668
993.948890	0.997755
994.244556	0.997675
994.540186	0.997469
994.835780	0.995701
995.131337	0.998420
995.426859	0.997396
995.722345	0.997883
996.017795	0.997250
996.313208	0.996991
996.608586	0.997453
996.903928	0.997321
997.199234	0.995787
997.494504	0.997875
997.789738	0.996548
998.084936	0.996739
998.380099	0.998579
998.675225	0.997371
998.970316	0.999695
999.265371	0.998034
999.560390	0.998703
999.855373	0.998525
1000.150320	0.998310
1000.445232	0.999181
1000.740108	0.998900
1001.034948	0.998565
1001.329752	0.998874
1001.624521	0.999879
1001.919254	0.997386
1002.213951	0.998549
1002.508613	0.998937
1002.803239	1.000622
1003.097829	0.999015
1003.392384	1.000175
1003.686903	0.999522
1003.981386	0.999027
1004.275834	0.999638
1004.570246	0.998422
1004.864623	0.998756
1005.158964	0.999337
1005.453270	0.998634
1005.747540	0.998554
1006.041775	0.999098
1006.335974	0.999670
1006.630138	0.999855
1006.924266	0.999451
1007.218359	1.000890
1007.512416	0.999647
1007.806438	0.999204
1008.100425	0.999011
1008.394376	0.999369
1008.688292	0.999310
1008.982172	1.000386
1009.276017	1.000862
1009.569827	0.999571
1009.863602	0.999125
1010.157341	0.999802
1010.451045	1.000274
1010.744714	0.999754
1011.038347	0.999001
1011.331945	0.999339
1011.625508	0.998182
1011.919036	0.999409
1012.212528	0.999477
1012.505986	0.997775
1012.799408	0.999171
1013.092795	0.998673
1013.386147	0.999787
1013.679464	0.998916
1013.972745	0.999178
1014.265992	0.997424
1014.559204	0.999057
1014.852380	0.999758
1015.145521	0.999125
1015.438628	1.000743
1015.731699	1.000822
1016.024736	0.999669
1016.317737	0.999479
1016.610703	1.000458
1016.903635	1.000620
1017.196531	0.999426
1017.489393	0.999706
1017.782219	0.998916
1018.075011	0.998816
1018.367768	0.998876
1018.660490	0.999948
1018.953177	0.999948
1019.245829	0.999948
