Dividing Wavelength (nm)	Counts (n)	Blue Motor Position (mm): 0.000000	Red Motor Position (mm): 20.200000	
326.493990	1.000177
326.888308	1.000177
327.282561	1.000177
327.676750	1.000271
328.070874	0.999325
328.464933	0.999475
328.858929	0.999208
329.252859	0.999894
329.646726	0.999452
330.040528	1.000678
330.434265	0.999014
330.827938	0.999936
331.221547	1.000248
331.615091	0.999902
332.008571	0.999469
332.401986	0.999945
332.795338	1.000821
333.188625	0.998875
333.581847	0.999740
333.975006	0.998742
334.368100	0.999661
334.761129	1.000203
335.154095	1.001516
335.546996	0.997360
335.939833	0.992727
336.332606	0.993289
336.725315	0.994515
337.117960	0.995720
337.510540	0.994253
337.903056	0.994631
338.295508	0.992914
338.687896	0.993571
339.080220	0.994256
339.472480	0.994023
339.864676	0.993587
340.256807	0.993450
340.648875	0.994716
341.040879	0.994972
341.432818	0.993243
341.824694	0.994195
342.216506	0.993547
342.608253	0.993903
342.999937	0.993647
343.391557	0.993816
343.783113	0.993719
344.174605	0.994730
344.566033	0.995373
344.957397	0.992873
345.348697	0.994967
345.739934	0.995816
346.131106	0.994166
346.522215	0.993022
346.913260	0.992344
347.304241	0.993913
347.695159	0.993439
348.086012	0.993391
348.476802	0.993316
348.867528	0.995224
349.258191	0.992599
349.648789	0.994667
350.039324	0.993287
350.429796	0.994341
350.820203	0.993809
351.210548	0.993266
351.600828	0.994476
351.991045	0.994194
352.381198	0.992618
352.771288	0.993959
353.161314	0.994563
353.551276	0.995799
353.941175	0.993403
354.331010	0.993289
354.720782	0.994182
355.110490	0.993462
355.500135	0.995107
355.889717	0.993638
356.279235	0.993901
356.668689	0.993745
357.058080	0.994096
357.447408	0.995417
357.836672	0.994525
358.225873	0.993936
358.615010	0.993767
359.004084	0.996119
359.393095	0.994233
359.782043	0.993113
360.170927	0.995273
360.559748	0.995325
360.948505	0.993715
361.337199	0.994527
361.725830	0.994020
362.114398	0.994378
362.502903	0.994713
362.891344	0.994413
363.279722	0.993528
363.668037	0.995158
364.056289	0.994973
364.444478	0.994693
364.832603	0.994768
365.220665	0.993674
365.608665	0.994780
365.996601	0.993493
366.384474	0.994313
366.772284	0.994434
367.160031	0.992305
367.547715	0.993861
367.935336	0.993676
368.322893	0.992503
368.710388	0.993349
369.097820	0.993225
369.485189	0.994412
369.872495	0.993227
370.259738	0.992378
370.646918	0.993822
371.034035	0.994339
371.421090	0.993835
371.808081	0.992972
372.195010	0.994249
372.581875	0.993944
372.968678	0.993963
373.355418	0.993527
373.742096	0.994711
374.128710	0.995951
374.515262	0.993000
374.901751	0.994812
375.288177	0.996027
375.674540	0.995179
376.060841	0.992989
376.447079	0.994782
376.833254	0.994935
377.219367	0.994938
377.605417	0.995565
377.991404	0.994986
378.377329	0.993440
378.763191	0.994841
379.148991	0.995331
379.534727	0.995225
379.920402	0.995098
380.306013	0.995013
380.691563	0.995533
381.077049	0.995269
381.462474	0.995450
381.847835	0.995247
382.233134	0.995239
382.618371	0.995827
383.003545	0.994777
383.388657	0.994179
383.773706	0.996170
384.158693	0.995942
384.543618	0.995319
384.928480	0.996672
385.313280	0.995524
385.698017	0.996314
386.082692	0.996645
386.467305	0.996640
386.851856	0.995791
387.236344	0.994896
387.620770	0.994671
388.005133	0.996554
388.389435	0.995973
388.773674	0.995578
389.157851	0.995780
389.541965	0.995266
389.926018	0.994606
390.310008	0.996901
390.693936	0.994854
391.077802	0.995621
391.461606	0.995383
391.845348	0.996524
392.229027	0.996263
392.612645	0.995883
392.996200	0.997174
393.379694	0.996593
393.763125	0.997017
394.146494	0.996890
394.529801	0.995250
394.913047	0.995569
395.296230	0.995845
395.679351	0.996246
396.062410	0.996452
396.445408	0.996211
396.828343	0.996095
397.211217	0.994571
397.594028	0.995946
397.976778	0.996133
398.359466	0.996036
398.742092	0.995479
399.124656	0.995291
399.507158	0.995766
399.889598	0.996212
400.271977	0.995427
400.654294	0.995505
401.036549	0.995741
401.418742	0.996577
401.800874	0.995029
402.182944	0.995787
402.564952	0.994835
402.946898	0.995817
403.328783	0.995088
403.710606	0.995819
404.092367	0.994995
404.474067	0.995976
404.855705	0.994845
405.237282	0.995679
405.618797	0.996373
406.000250	0.994808
406.381642	0.995741
406.762972	0.994762
407.144240	0.995206
407.525447	0.995638
407.906593	0.994853
408.287677	0.994926
408.668700	0.995309
409.049661	0.994135
409.430560	0.994453
409.811399	0.993291
410.192176	0.992791
410.572891	0.993006
410.953545	0.992523
411.334138	0.991599
411.714669	0.991344
412.095139	0.990874
412.475547	0.989472
412.855894	0.988018
413.236180	0.986863
413.616405	0.986860
413.996568	0.985200
414.376670	0.983012
414.756711	0.980758
415.136691	0.978739
415.516609	0.976696
415.896466	0.972897
416.276262	0.970525
416.655997	0.969182
417.035670	0.964632
417.415283	0.961189
417.794834	0.958274
418.174324	0.955069
418.553753	0.952445
418.933121	0.946869
419.312428	0.941978
419.691674	0.939211
420.070859	0.934115
420.449983	0.929847
420.829045	0.923662
421.208047	0.920495
421.586988	0.914012
421.965867	0.907576
422.344686	0.899517
422.723444	0.895920
423.102141	0.893306
423.480777	0.882346
423.859352	0.880273
424.237866	0.867424
424.616319	0.860495
424.994712	0.851675
425.373044	0.846835
425.751314	0.834938
426.129524	0.831889
426.507673	0.819107
426.885762	0.810283
427.263789	0.802546
427.641756	0.798801
428.019662	0.786788
428.397508	0.776893
428.775292	0.769440
429.153016	0.757688
429.530679	0.752863
429.908282	0.740667
430.285824	0.736621
430.663305	0.716438
431.040726	0.717575
431.418086	0.711243
431.795385	0.697456
432.172624	0.687403
432.549802	0.680101
432.926920	0.670385
433.303977	0.660675
433.680974	0.652073
434.057910	0.641599
434.434786	0.634043
434.811601	0.627570
435.188355	0.607096
435.565050	0.606118
435.941683	0.599309
436.318257	0.580900
436.694770	0.573104
437.071222	0.564460
437.447614	0.560693
437.823946	0.559166
438.200218	0.543645
438.576429	0.544733
438.952580	0.532712
439.328670	0.524499
439.704700	0.523759
440.080670	0.519459
440.456580	0.497278
440.832429	0.498413
441.208218	0.502560
441.583947	0.488892
441.959616	0.483900
442.335224	0.484056
442.710773	0.471239
443.086261	0.464647
443.461689	0.474549
443.837057	0.461339
444.212365	0.447990
444.587612	0.451733
444.962800	0.439107
445.337927	0.437675
445.712995	0.459512
446.088002	0.420892
446.462949	0.428571
446.837837	0.430438
447.212664	0.418253
447.587431	0.407650
447.962139	0.377784
448.336786	0.336379
448.711374	0.345063
449.085901	0.386052
449.460369	0.389315
449.834776	0.391109
450.209124	0.369938
450.583412	0.361702
450.957640	0.354230
451.331808	0.364212
451.705917	0.386343
452.079965	0.390472
452.453954	0.378107
452.827883	0.384087
453.201752	0.378824
453.575562	0.389917
453.949311	0.377725
454.323001	0.383435
454.696632	0.378772
455.070202	0.371792
455.443713	0.363112
455.817164	0.357549
456.190556	0.353735
456.563888	0.349818
456.937160	0.347604
457.310373	0.364170
457.683526	0.363004
458.056619	0.368335
458.429653	0.368866
458.802628	0.372237
459.175542	0.366707
459.548398	0.349384
459.921194	0.341487
460.293930	0.341689
460.666607	0.319112
461.039224	0.307470
461.411782	0.303145
461.784280	0.302203
462.156719	0.306256
462.529099	0.310261
462.901419	0.326749
463.273680	0.330967
463.645882	0.330562
464.018024	0.336054
464.390106	0.328826
464.762130	0.313745
465.134094	0.296724
465.505999	0.266268
465.877845	0.236789
466.249631	0.223757
466.621358	0.231330
466.993026	0.245192
467.364634	0.251080
467.736184	0.259811
468.107674	0.268614
468.479105	0.267836
468.850477	0.274356
469.221790	0.281053
469.593043	0.291476
469.964238	0.295919
470.335373	0.295254
470.706449	0.293726
471.077467	0.294264
471.448425	0.256653
471.819324	0.232468
472.190164	0.231739
472.560945	0.260415
472.931667	0.282597
473.302330	0.286555
473.672934	0.298662
474.043479	0.286481
474.413965	0.288339
474.784393	0.291568
475.154761	0.287180
475.525070	0.283939
475.895321	0.289870
476.265513	0.283880
476.635645	0.279372
477.005719	0.279612
477.375734	0.276392
477.745691	0.269220
478.115588	0.265849
478.485427	0.259644
478.855207	0.246503
479.224928	0.229047
479.594591	0.217131
479.964194	0.220628
480.333739	0.221617
480.703226	0.223325
481.072653	0.221768
481.442022	0.217283
481.811333	0.213723
482.180584	0.217330
482.549777	0.222771
482.918912	0.226012
483.287988	0.225751
483.657005	0.225077
484.025964	0.231635
484.394864	0.229068
484.763706	0.229618
485.132489	0.234809
485.501213	0.235427
485.869879	0.234069
486.238487	0.237015
486.607036	0.234873
486.975527	0.239581
487.343959	0.235112
487.712333	0.234210
488.080648	0.235749
488.448905	0.234820
488.817104	0.236370
489.185244	0.230734
489.553326	0.227706
489.921350	0.217518
490.289315	0.200048
490.657222	0.194946
491.025070	0.196345
491.392861	0.198105
491.760593	0.203950
492.128267	0.209489
492.495883	0.214955
492.863440	0.221005
493.230939	0.227516
493.598380	0.228723
493.965763	0.230989
494.333088	0.233250
494.700354	0.234546
495.067563	0.233726
495.434713	0.236961
495.801805	0.234920
496.168839	0.236077
496.535815	0.237511
496.902733	0.237551
497.269593	0.239055
497.636395	0.236850
498.003139	0.237246
498.369825	0.240058
498.736453	0.236417
499.103023	0.238141
499.469535	0.237552
499.835989	0.237793
500.202385	0.238704
500.568723	0.241906
500.935003	0.237039
501.301226	0.241154
501.667390	0.235786
502.033497	0.233638
502.399546	0.236520
502.765537	0.238493
503.131470	0.237063
503.497345	0.233120
503.863163	0.241781
504.228923	0.234899
504.594625	0.233442
504.960269	0.239165
505.325856	0.234177
505.691385	0.238526
506.056856	0.235188
506.422270	0.234802
506.787625	0.237223
507.152924	0.234689
507.518164	0.235359
507.883347	0.236710
508.248472	0.238593
508.613540	0.233741
508.978550	0.236277
509.343503	0.236552
509.708398	0.234174
510.073236	0.231685
510.438016	0.231786
510.802738	0.232719
511.167403	0.231592
511.532010	0.233749
511.896561	0.229108
512.261053	0.227979
512.625488	0.230054
512.989866	0.230332
513.354186	0.230532
513.718449	0.232535
514.082655	0.228800
514.446803	0.230978
514.810894	0.228545
515.174927	0.231422
515.538904	0.230803
515.902822	0.227621
516.266684	0.230063
516.630488	0.231395
516.994235	0.230087
517.357925	0.228940
517.721558	0.227301
518.085133	0.226589
518.448651	0.226956
518.812112	0.228950
519.175516	0.228478
519.538863	0.226291
519.902152	0.228006
520.265385	0.224865
520.628560	0.226600
520.991678	0.227013
521.354739	0.225824
521.717743	0.227016
522.080690	0.227696
522.443580	0.224903
522.806413	0.226193
523.169189	0.225151
523.531908	0.224147
523.894569	0.227668
524.257174	0.227620
524.619722	0.225460
524.982213	0.226529
525.344647	0.225312
525.707025	0.226205
526.069345	0.224021
526.431608	0.225864
526.793815	0.223884
527.155964	0.227973
527.518057	0.226894
527.880093	0.227884
528.242072	0.226480
528.603995	0.228281
528.965860	0.230180
529.327669	0.229087
529.689421	0.229775
530.051117	0.230824
530.412755	0.228364
530.774337	0.230952
531.135862	0.231124
531.497331	0.230374
531.858743	0.233366
532.220098	0.230131
532.581396	0.232430
532.942638	0.233089
533.303824	0.234036
533.664953	0.234069
534.026025	0.235637
534.387040	0.233330
534.747999	0.233506
535.108902	0.232339
535.469748	0.237224
535.830537	0.235265
536.191270	0.235713
536.551947	0.235166
536.912567	0.235087
537.273131	0.236841
537.633638	0.236908
537.994089	0.237351
538.354483	0.238661
538.714821	0.235629
539.075103	0.235378
539.435328	0.235912
539.795497	0.239558
540.155609	0.236314
540.515665	0.234441
540.875665	0.239978
541.235609	0.238578
541.595496	0.238689
541.955328	0.235322
542.315102	0.238127
542.674821	0.238837
543.034483	0.238726
543.394090	0.238746
543.753640	0.240671
544.113134	0.235596
544.472571	0.238872
544.831953	0.235668
545.191278	0.239792
545.550548	0.239423
545.909761	0.236220
546.268918	0.236882
546.628019	0.234916
546.987064	0.237792
547.346053	0.239626
547.704986	0.237695
548.063863	0.237680
548.422684	0.238009
548.781449	0.239877
549.140158	0.237452
549.498811	0.240333
549.857408	0.243448
550.215949	0.238291
550.574434	0.241160
550.932864	0.239215
551.291237	0.238041
551.649555	0.239588
552.007817	0.239031
552.366022	0.239977
552.724173	0.240095
553.082267	0.240328
553.440305	0.237245
553.798288	0.241694
554.156215	0.238457
554.514086	0.239342
554.871902	0.242101
555.229661	0.241540
555.587365	0.241956
555.945014	0.244485
556.302606	0.241299
556.660143	0.243732
557.017625	0.240697
557.375050	0.242691
557.732421	0.239710
558.089735	0.241845
558.446994	0.241700
558.804197	0.241004
559.161345	0.241134
559.518437	0.244590
559.875474	0.242054
560.232455	0.241542
560.589381	0.242748
560.946251	0.242715
561.303065	0.240171
561.659825	0.241732
562.016528	0.243287
562.373177	0.246245
562.729770	0.243610
563.086307	0.245530
563.442789	0.243397
563.799216	0.245974
564.155587	0.244774
564.511904	0.245806
564.868164	0.246223
565.224370	0.245734
565.580520	0.247641
565.936615	0.247540
566.292654	0.250535
566.648638	0.247361
567.004567	0.248602
567.360441	0.248941
567.716260	0.251116
568.072023	0.248711
568.427732	0.249621
568.783385	0.251489
569.138982	0.249836
569.494525	0.249348
569.850013	0.252516
570.205445	0.250929
570.560823	0.253600
570.916145	0.255644
571.271412	0.253549
571.626625	0.255147
571.981782	0.255491
572.336884	0.256643
572.691931	0.255757
573.046923	0.257558
573.401860	0.258755
573.756743	0.260461
574.111570	0.259285
574.466342	0.259666
574.821059	0.258678
575.175722	0.261467
575.530330	0.261487
575.884882	0.261450
576.239380	0.263712
576.593823	0.264027
576.948211	0.263642
577.302544	0.267094
577.656823	0.266785
578.011047	0.266717
578.365216	0.267366
578.719330	0.269274
579.073389	0.269137
579.427394	0.270333
579.781344	0.271190
580.135239	0.272669
580.489080	0.272162
580.842866	0.275148
581.196597	0.275435
581.550273	0.273459
581.903895	0.274818
582.257463	0.272647
582.610975	0.276197
582.964434	0.275787
583.317837	0.278258
583.671186	0.278292
584.024481	0.278550
584.377721	0.281089
584.730906	0.281558
585.084037	0.280549
585.437113	0.282910
585.790135	0.282237
586.143103	0.284971
586.496016	0.286133
586.848874	0.283584
587.201679	0.284004
587.554428	0.287849
587.907124	0.286380
588.259765	0.287051
588.612352	0.287628
588.964884	0.291432
589.317362	0.291026
589.669786	0.290806
590.022155	0.289592
590.374470	0.288734
590.726731	0.291006
591.078937	0.295491
591.431090	0.292103
591.783188	0.296183
592.135232	0.296360
592.487222	0.296527
592.839157	0.294705
593.191038	0.297167
593.542866	0.298658
593.894639	0.302509
594.246358	0.300494
594.598022	0.299603
594.949633	0.303627
595.301190	0.304325
595.652692	0.303203
596.004141	0.299412
596.355535	0.307370
596.706876	0.307908
597.058162	0.310585
597.409395	0.307548
597.760573	0.305238
598.111698	0.308700
598.462768	0.309195
598.813785	0.310425
599.164748	0.311560
599.515657	0.311901
599.866511	0.315602
600.217312	0.310401
600.568060	0.316196
600.918753	0.312574
601.269392	0.313524
601.619978	0.316352
601.970510	0.314328
602.320988	0.314283
602.671412	0.312027
603.021783	0.314622
603.372100	0.315723
603.722363	0.315360
604.072572	0.316311
604.422728	0.316115
604.772830	0.318266
605.122878	0.317913
605.472872	0.318643
605.822813	0.316810
606.172701	0.319418
606.522534	0.316589
606.872314	0.316738
607.222041	0.317627
607.571714	0.315817
607.921333	0.317355
608.270899	0.317077
608.620411	0.313684
608.969870	0.317658
609.319276	0.317473
609.668627	0.317656
610.017926	0.316306
610.367171	0.314572
610.716362	0.315632
611.065500	0.315488
611.414585	0.314316
611.763616	0.315233
612.112594	0.315666
612.461518	0.314612
612.810389	0.312416
613.159207	0.314937
613.507971	0.316713
613.856682	0.312556
614.205340	0.313703
614.553945	0.310586
614.902496	0.314708
615.250994	0.312570
615.599439	0.313530
615.947830	0.312683
616.296169	0.313834
616.644454	0.313317
616.992686	0.313497
617.340864	0.311222
617.688990	0.315064
618.037063	0.311502
618.385082	0.313568
618.733048	0.310165
619.080961	0.312439
619.428821	0.311982
619.776628	0.311213
620.124382	0.313686
620.472083	0.313883
620.819731	0.313174
621.167326	0.317104
621.514868	0.317081
621.862357	0.321016
622.209793	0.320764
622.557176	0.322972
622.904506	0.323649
623.251783	0.326352
623.599007	0.328485
623.946179	0.327914
624.293297	0.329995
624.640363	0.333623
624.987376	0.334623
625.334336	0.337073
625.681243	0.339253
626.028097	0.339852
626.374899	0.340629
626.721647	0.341004
627.068343	0.344378
627.414987	0.345656
627.761577	0.347324
628.108115	0.346190
628.454600	0.351001
628.801032	0.348381
629.147412	0.350533
629.493739	0.350523
629.840014	0.354042
630.186236	0.351174
630.532405	0.356753
630.878521	0.354180
631.224585	0.356143
631.570597	0.360206
631.916556	0.358614
632.262462	0.358804
632.608316	0.360511
632.954117	0.361511
633.299866	0.362418
633.645562	0.363050
633.991206	0.367284
634.336797	0.369994
634.682336	0.372433
635.027823	0.373753
635.373257	0.374343
635.718639	0.378167
636.063968	0.377208
636.409245	0.383374
636.754470	0.383337
637.099642	0.385847
637.444762	0.389344
637.789829	0.388488
638.134845	0.391631
638.479808	0.392633
638.824719	0.392419
639.169577	0.396456
639.514383	0.395067
639.859137	0.399239
640.203839	0.399592
640.548489	0.399784
640.893086	0.401155
641.237632	0.402722
641.582125	0.401092
641.926566	0.402742
642.270955	0.402646
642.615292	0.403459
642.959576	0.402692
643.303809	0.403207
643.647990	0.402462
643.992118	0.403469
644.336195	0.406642
644.680219	0.404702
645.024192	0.405536
645.368112	0.399436
645.711981	0.398340
646.055797	0.393062
646.399562	0.396308
646.743274	0.388371
647.086935	0.385850
647.430544	0.385554
647.774101	0.384491
648.117606	0.384406
648.461059	0.384475
648.804460	0.387357
649.147810	0.392506
649.491108	0.394299
649.834354	0.395381
650.177548	0.400637
650.520690	0.406199
650.863781	0.407411
651.206820	0.406472
651.549807	0.411644
651.892742	0.416002
652.235626	0.415027
652.578458	0.415934
652.921238	0.422091
653.263967	0.419649
653.606644	0.423926
653.949269	0.423353
654.291843	0.427200
654.634365	0.424028
654.976836	0.427397
655.319255	0.428096
655.661622	0.428882
656.003938	0.429288
656.346203	0.432216
656.688416	0.429785
657.030577	0.433068
657.372687	0.434940
657.714746	0.435903
658.056753	0.432916
658.398708	0.437010
658.740612	0.438101
659.082465	0.434046
659.424266	0.434432
659.766016	0.434164
660.107715	0.436884
660.449362	0.435531
660.790958	0.436920
661.132503	0.436773
661.473996	0.434881
661.815438	0.435731
662.156829	0.436040
662.498168	0.436434
662.839456	0.437762
663.180693	0.435791
663.521879	0.435096
663.863013	0.436321
664.204097	0.434826
664.545129	0.431880
664.886110	0.432166
665.227040	0.429467
665.567918	0.431848
665.908746	0.429772
666.249522	0.429474
666.590248	0.430837
666.930922	0.428888
667.271545	0.428060
667.612118	0.427531
667.952639	0.429587
668.293109	0.427923
668.633528	0.432339
668.973896	0.431345
669.314213	0.431643
669.654480	0.433088
669.994695	0.433679
670.334859	0.434204
670.674973	0.434507
671.015035	0.434632
671.355047	0.434361
671.695008	0.435639
672.034918	0.437495
672.374777	0.436714
672.714585	0.437779
673.054342	0.437558
673.394049	0.437702
673.733705	0.435572
674.073310	0.436941
674.412864	0.440081
674.752368	0.440513
675.091820	0.440155
675.431223	0.445195
675.770574	0.444740
676.109875	0.447772
676.449125	0.447325
676.788324	0.450468
677.127473	0.455643
677.466571	0.455208
677.805619	0.457186
678.144616	0.457671
678.483562	0.459726
678.822458	0.461908
679.161303	0.463091
679.500098	0.463274
679.838842	0.465162
680.177535	0.464799
680.516179	0.463276
680.854771	0.462768
681.193314	0.455459
681.531805	0.447512
681.870247	0.435641
682.208638	0.428096
682.546978	0.427034
682.885268	0.428139
683.223508	0.435302
683.561697	0.438620
683.899836	0.442083
684.237925	0.444940
684.575963	0.447469
684.913951	0.450602
685.251889	0.446407
685.589776	0.448132
685.927614	0.450321
686.265401	0.445428
686.603137	0.446252
686.940824	0.439675
687.278460	0.439160
687.616046	0.437724
687.953582	0.432434
688.291068	0.434452
688.628504	0.430119
688.965889	0.432172
689.303224	0.436058
689.640510	0.440172
689.977745	0.446034
690.314930	0.454043
690.652065	0.458592
690.989150	0.465604
691.326185	0.472115
691.663170	0.476668
692.000105	0.484035
692.336990	0.490998
692.673825	0.493117
693.010610	0.500866
693.347345	0.506269
693.684030	0.507798
694.020665	0.512373
694.357251	0.520632
694.693786	0.520210
695.030272	0.525029
695.366707	0.527862
695.703093	0.531869
696.039429	0.529452
696.375716	0.531757
696.711952	0.534011
697.048139	0.535903
697.384276	0.537487
697.720363	0.535688
698.056400	0.534828
698.392388	0.540732
698.728326	0.543574
699.064214	0.546795
699.400053	0.547699
699.735842	0.551007
700.071581	0.553868
700.407270	0.556180
700.742910	0.558538
701.078501	0.565509
701.414042	0.566442
701.749533	0.568806
702.084974	0.578133
702.420366	0.570065
702.755709	0.578145
703.091002	0.585055
703.426246	0.579198
703.761440	0.584714
704.096584	0.589327
704.431679	0.586353
704.766725	0.588888
705.101721	0.590632
705.436668	0.586505
705.771565	0.593691
706.106413	0.590025
706.441212	0.585970
706.775961	0.584500
707.110661	0.586753
707.445311	0.583219
707.779913	0.581095
708.114465	0.579410
708.448967	0.575706
708.783421	0.568173
709.117825	0.562217
709.452180	0.562166
709.786485	0.556584
710.120742	0.546027
710.454949	0.548537
710.789107	0.540448
711.123216	0.530804
711.457275	0.533237
711.791286	0.523653
712.125247	0.522113
712.459159	0.533809
712.793023	0.526188
713.126837	0.530549
713.460602	0.530440
713.794318	0.540103
714.127985	0.538752
714.461602	0.548937
714.795171	0.552217
715.128691	0.559730
715.462162	0.567825
715.795584	0.572857
716.128957	0.575953
716.462281	0.582118
716.795556	0.586127
717.128782	0.590864
717.461960	0.601016
717.795088	0.599377
718.128167	0.605394
718.461198	0.614569
718.794180	0.614929
719.127113	0.617285
719.459997	0.620875
719.792833	0.626930
720.125619	0.628438
720.458357	0.634249
720.791046	0.633681
721.123686	0.638068
721.456278	0.644483
721.788821	0.641504
722.121315	0.645624
722.453761	0.649725
722.786158	0.647455
723.118506	0.643733
723.450805	0.652398
723.783056	0.648609
724.115259	0.645283
724.447412	0.644765
724.779518	0.646369
725.111574	0.645487
725.443582	0.641003
725.775542	0.642083
726.107453	0.634939
726.439315	0.634559
726.771129	0.633269
727.102895	0.626546
727.434612	0.619977
727.766281	0.617653
728.097901	0.616994
728.429473	0.616562
728.760996	0.615548
729.092471	0.614993
729.423897	0.618811
729.755276	0.617987
730.086606	0.618497
730.417887	0.612670
730.749120	0.603352
731.080305	0.594256
731.411442	0.590364
731.742530	0.595113
732.073570	0.594410
732.404562	0.586909
732.735506	0.587943
733.066401	0.593027
733.397249	0.601687
733.728048	0.613556
734.058798	0.626066
734.389501	0.636206
734.720156	0.645850
735.050762	0.654800
735.381320	0.655379
735.711831	0.664063
736.042293	0.669867
736.372707	0.664798
736.703073	0.669936
737.033391	0.671972
737.363661	0.669335
737.693883	0.664261
738.024056	0.662711
738.354182	0.662730
738.684260	0.652632
739.014290	0.648245
739.344272	0.649768
739.674207	0.643247
740.004093	0.642171
740.333931	0.642741
740.663722	0.643258
740.993464	0.643721
741.323159	0.648049
741.652806	0.652394
741.982405	0.657218
742.311956	0.661605
742.641460	0.664291
742.970915	0.667828
743.300323	0.675533
743.629683	0.681155
743.958996	0.682924
744.288260	0.687188
744.617477	0.693463
744.946647	0.695399
745.275768	0.700198
745.604842	0.700181
745.933869	0.710031
746.262847	0.710993
746.591778	0.704613
746.920662	0.710343
747.249498	0.717668
747.578286	0.708283
747.907027	0.704183
748.235720	0.705195
748.564365	0.699622
748.892963	0.699453
749.221514	0.702378
749.550017	0.708342
749.878473	0.707732
750.206881	0.714113
750.535242	0.715284
750.863555	0.715047
751.191821	0.716752
751.520039	0.719583
751.848210	0.724577
752.176334	0.716730
752.504411	0.715704
752.832440	0.724228
753.160421	0.727699
753.488356	0.725898
753.816243	0.723429
754.144082	0.731970
754.471875	0.735873
754.799620	0.730348
755.127318	0.732260
755.454969	0.732415
755.782572	0.731406
756.110129	0.736593
756.437638	0.739546
756.765100	0.735785
757.092515	0.734123
757.419882	0.732195
757.747203	0.737871
758.074477	0.737191
758.401703	0.734627
758.728882	0.729358
759.056014	0.727977
759.383099	0.727819
759.710138	0.727572
760.037129	0.725382
760.364073	0.719025
760.690970	0.721545
761.017820	0.726700
761.344623	0.722660
761.671379	0.713940
761.998088	0.702686
762.324751	0.679182
762.651366	0.638063
762.977935	0.571423
763.304456	0.518903
763.630931	0.509292
763.957359	0.549195
764.283740	0.592709
764.610074	0.619632
764.936362	0.650686
765.262602	0.677710
765.588796	0.698688
765.914943	0.716435
766.241044	0.734193
766.567097	0.741725
766.893104	0.751421
767.219064	0.757227
767.544978	0.763536
767.870845	0.777673
768.196665	0.780656
768.522438	0.778938
768.848165	0.780472
769.173846	0.789523
769.499479	0.793232
769.825066	0.797088
770.150607	0.803071
770.476101	0.797657
770.801548	0.798948
771.126949	0.810719
771.452303	0.813105
771.777611	0.813533
772.102872	0.812476
772.428087	0.817834
772.753256	0.820315
773.078378	0.822550
773.403453	0.830820
773.728482	0.837067
774.053465	0.829621
774.378401	0.832706
774.703291	0.841878
775.028135	0.840378
775.352932	0.842094
775.677683	0.845652
776.002388	0.846080
776.327046	0.845109
776.651658	0.848821
776.976224	0.853022
777.300743	0.851271
777.625216	0.854691
777.949643	0.855991
778.274024	0.856672
778.598359	0.858876
778.922647	0.856744
779.246889	0.857225
779.571086	0.861908
779.895236	0.863362
780.219339	0.861603
780.543397	0.857373
780.867409	0.855917
781.191374	0.859236
781.515294	0.859998
781.839167	0.859006
782.162995	0.862925
782.486776	0.859471
782.810511	0.859573
783.134201	0.864379
783.457844	0.861072
783.781441	0.864756
784.104993	0.869911
784.428498	0.870731
784.751958	0.865689
785.075372	0.868543
785.398739	0.872778
785.722061	0.868024
786.045337	0.863676
786.368568	0.869207
786.691752	0.871583
787.014891	0.857273
787.337983	0.848042
787.661030	0.839535
787.984031	0.824021
788.306987	0.810158
788.629897	0.812656
788.952760	0.816050
789.275579	0.821054
789.598351	0.836007
789.921078	0.849087
790.243759	0.851487
790.566395	0.856802
790.888984	0.862944
791.211529	0.868361
791.534027	0.871544
791.856480	0.873355
792.178888	0.879023
792.501249	0.882009
792.823566	0.882621
793.145836	0.882553
793.468062	0.884522
793.790241	0.884567
794.112375	0.882634
794.434464	0.878759
794.756507	0.876655
795.078505	0.875996
795.400457	0.871806
795.722364	0.860634
796.044226	0.852099
796.366042	0.851419
796.687812	0.854703
797.009538	0.850841
797.331218	0.854257
797.652852	0.858367
797.974442	0.863666
798.295986	0.864504
798.617484	0.866288
798.938938	0.871197
799.260346	0.875398
799.581709	0.877744
799.903026	0.879765
800.224299	0.880889
800.545526	0.884357
800.866708	0.888123
801.187845	0.890817
801.508936	0.891245
801.829983	0.889278
802.150984	0.892317
802.471940	0.897396
802.792851	0.897520
803.113717	0.897420
803.434538	0.896239
803.755314	0.898080
804.076045	0.898686
804.396731	0.899376
804.717372	0.899361
805.037967	0.901423
805.358518	0.899612
805.679024	0.896463
805.999485	0.897239
806.319901	0.897107
806.640272	0.897972
806.960598	0.896557
807.280879	0.892834
807.601115	0.891082
807.921306	0.896032
808.241453	0.896262
808.561554	0.893553
808.881611	0.893737
809.201623	0.895745
809.521590	0.895884
809.841513	0.896401
810.161390	0.895156
810.481223	0.897824
810.801011	0.900479
811.120755	0.903384
811.440453	0.901571
811.760107	0.901338
812.079716	0.900024
812.399281	0.903533
812.718801	0.907776
813.038276	0.907076
813.357707	0.905870
813.677093	0.903243
813.996434	0.906923
814.315731	0.908381
814.634983	0.909772
814.954191	0.906880
815.273354	0.905752
815.592473	0.900976
815.911547	0.901398
816.230577	0.898899
816.549562	0.895867
816.868502	0.896988
817.187399	0.894239
817.506250	0.887775
817.825058	0.889555
818.143821	0.886541
818.462539	0.881357
818.781213	0.873035
819.099843	0.861057
819.418429	0.845908
819.736970	0.829764
820.055466	0.808983
820.373919	0.783868
820.692327	0.751496
821.010691	0.716188
821.329011	0.639110
821.647286	0.523988
821.965517	0.410312
822.283704	0.367788
822.601847	0.369069
822.919945	0.404339
823.237999	0.438162
823.556010	0.484866
823.873976	0.540571
824.191897	0.591312
824.509775	0.633057
824.827609	0.678898
825.145398	0.701338
825.463144	0.705051
825.780845	0.687807
826.098502	0.668671
826.416116	0.622670
826.733685	0.578675
827.051210	0.570515
827.368692	0.585392
827.686129	0.622837
828.003522	0.675258
828.320872	0.723284
828.638177	0.766755
828.955439	0.799341
829.272656	0.821622
829.589830	0.837973
829.906960	0.853868
830.224046	0.866518
830.541088	0.876773
830.858086	0.881101
831.175041	0.886979
831.491952	0.886437
831.808819	0.883028
832.125642	0.876740
832.442421	0.861954
832.759157	0.839694
833.075849	0.793554
833.392497	0.729954
833.709101	0.689276
834.025662	0.699295
834.342179	0.730314
834.658653	0.769673
834.975083	0.805739
835.291469	0.832034
835.607811	0.853943
835.924110	0.870108
836.240366	0.886916
836.556578	0.901545
836.872746	0.907873
837.188871	0.914820
837.504952	0.920563
837.820990	0.923703
838.136984	0.926822
838.452935	0.929573
838.768842	0.931402
839.084706	0.923811
839.400526	0.898063
839.716303	0.859139
840.032037	0.835896
840.347727	0.840200
840.663373	0.859204
840.978977	0.879855
841.294537	0.902630
841.610054	0.918940
841.925527	0.926514
842.240957	0.933580
842.556344	0.939437
842.871687	0.946089
843.186987	0.949917
843.502244	0.950444
843.817458	0.952884
844.132629	0.956417
844.447756	0.960078
844.762840	0.961145
845.077881	0.959064
845.392879	0.959822
845.707833	0.962498
846.022745	0.964780
846.337613	0.964766
846.652438	0.966493
846.967221	0.964473
847.281960	0.965286
847.596656	0.966448
847.911309	0.965525
848.225919	0.968271
848.540485	0.968762
848.855009	0.968770
849.169490	0.968794
849.483928	0.968646
849.798323	0.969466
850.112675	0.969116
850.426984	0.968917
850.741251	0.968885
851.055474	0.968823
851.369654	0.967120
851.683792	0.970326
851.997887	0.970755
852.311938	0.970523
852.625947	0.970356
852.939914	0.966948
853.253837	0.968843
853.567718	0.970255
853.881555	0.971210
854.195350	0.967548
854.509103	0.968995
854.822812	0.969877
855.136479	0.968894
855.450103	0.969836
855.763685	0.968036
856.077224	0.968099
856.390720	0.970673
856.704173	0.970898
857.017584	0.968553
857.330953	0.966095
857.644278	0.967933
857.957561	0.967521
858.270802	0.968097
858.584000	0.967716
858.897155	0.966701
859.210268	0.967053
859.523339	0.969174
859.836367	0.969382
860.149352	0.970536
860.462295	0.969688
860.775195	0.969525
861.088054	0.968626
861.400869	0.968825
861.713642	0.970946
862.026373	0.970981
862.339062	0.970079
862.651708	0.967822
862.964312	0.967761
863.276873	0.969764
863.589392	0.968236
863.901869	0.965859
864.214303	0.965323
864.526696	0.962927
864.839045	0.962794
865.151353	0.961412
865.463619	0.962243
865.775842	0.962563
866.088023	0.962053
866.400162	0.962090
866.712258	0.961768
867.024313	0.962590
867.336325	0.962685
867.648296	0.962574
867.960224	0.962468
868.272110	0.962282
868.583954	0.963035
868.895755	0.963559
869.207515	0.962369
869.519233	0.959239
869.830909	0.961944
870.142542	0.962010
870.454134	0.961932
870.765684	0.960798
871.077191	0.958338
871.388657	0.959312
871.700081	0.958654
872.011463	0.958713
872.322803	0.958213
872.634101	0.956347
872.945357	0.954547
873.256571	0.952070
873.567744	0.953131
873.878874	0.953893
874.189963	0.951507
874.501010	0.951107
874.812015	0.948890
875.122979	0.950668
875.433900	0.952667
875.744780	0.952775
876.055618	0.951637
876.366415	0.949724
876.677169	0.949696
876.987882	0.950598
877.298554	0.950479
877.609183	0.946378
877.919771	0.944974
878.230317	0.942477
878.540822	0.941278
878.851285	0.934569
879.161707	0.927079
879.472087	0.914278
879.782425	0.898251
880.092722	0.864584
880.402977	0.813085
880.713191	0.752204
881.023363	0.693645
881.333494	0.659386
881.643583	0.631656
881.953631	0.631439
882.263637	0.660643
882.573602	0.699364
882.883526	0.724161
883.193408	0.748466
883.503248	0.770860
883.813048	0.798271
884.122806	0.827409
884.432522	0.851324
884.742197	0.870076
885.051831	0.880811
885.361424	0.891699
885.670975	0.903382
885.980485	0.913098
886.289954	0.920068
886.599382	0.924637
886.908768	0.928266
887.218113	0.933827
887.527417	0.939014
887.836680	0.942561
888.145901	0.944157
888.455082	0.946177
888.764221	0.950266
889.073319	0.952523
889.382376	0.952768
889.691392	0.952504
890.000366	0.953334
890.309300	0.953394
890.618193	0.952651
890.927044	0.951532
891.235855	0.950554
891.544625	0.951983
891.853353	0.951153
892.162041	0.948670
892.470687	0.942668
892.779293	0.937450
893.087858	0.934214
893.396381	0.926359
893.704864	0.913768
894.013306	0.890088
894.321707	0.863148
894.630068	0.849317
894.938387	0.843757
895.246665	0.845163
895.554903	0.857275
895.863100	0.870545
896.171256	0.887128
896.479371	0.905584
896.787446	0.919815
897.095480	0.925619
897.403473	0.929045
897.711425	0.933281
898.019336	0.939710
898.327207	0.943658
898.635038	0.944786
898.942827	0.944619
899.250576	0.948047
899.558284	0.952551
899.865952	0.953540
900.173579	0.954411
900.481165	0.955676
900.788711	0.959919
901.096216	0.962194
901.403681	0.961346
901.711105	0.962761
902.018489	0.964094
902.325832	0.961333
902.633135	0.961040
902.940397	0.955901
903.247619	0.944364
903.554800	0.918580
903.861941	0.879078
904.169041	0.843329
904.476101	0.826316
904.783121	0.827242
905.090100	0.843591
905.397039	0.864897
905.703938	0.886592
906.010796	0.905847
906.317614	0.923074
906.624391	0.935016
906.931129	0.944156
907.237826	0.952709
907.544483	0.958778
907.851099	0.961895
908.157675	0.968530
908.464211	0.969876
908.770707	0.972800
909.077163	0.975031
909.383578	0.974843
909.689954	0.974688
909.996289	0.975047
910.302584	0.976314
910.608839	0.978565
910.915054	0.979039
911.221229	0.979265
911.527363	0.976461
911.833458	0.977726
912.139513	0.977320
912.445527	0.975477
912.751502	0.974197
913.057436	0.972061
913.363331	0.969981
913.669186	0.966491
913.975000	0.961423
914.280775	0.955618
914.586510	0.949285
914.892205	0.935624
915.197859	0.914315
915.503475	0.887665
915.809050	0.867917
916.114585	0.861296
916.420081	0.859527
916.725536	0.856247
917.030952	0.864574
917.336328	0.876895
917.641665	0.892280
917.946961	0.908206
918.252218	0.919043
918.557435	0.927252
918.862612	0.935882
919.167750	0.942432
919.472848	0.947094
919.777906	0.952424
920.082925	0.957949
920.387904	0.960875
920.692843	0.963065
920.997743	0.963828
921.302603	0.967879
921.607423	0.969635
921.912204	0.970963
922.216946	0.972011
922.521647	0.973412
922.826310	0.974634
923.130932	0.976668
923.435516	0.978170
923.740059	0.978728
924.044564	0.978804
924.349028	0.979848
924.653454	0.981985
924.957840	0.984474
925.262186	0.984313
925.566493	0.983868
925.870761	0.984434
926.174989	0.985138
926.479178	0.988452
926.783328	0.987612
927.087438	0.987870
927.391509	0.988189
927.695541	0.990390
927.999533	0.988507
928.303486	0.990262
928.607400	0.990474
928.911275	0.988982
929.215110	0.990113
929.518906	0.990782
929.822663	0.988790
930.126381	0.991342
930.430060	0.990489
930.733699	0.990240
931.037299	0.988504
931.340861	0.989466
931.644383	0.989710
931.947866	0.989509
932.251309	0.990472
932.554714	0.990375
932.858080	0.989299
933.161407	0.989888
933.464694	0.991304
933.767943	0.989206
934.071153	0.990721
934.374323	0.991415
934.677455	0.991232
934.980548	0.990748
935.283602	0.989664
935.586617	0.990581
935.889593	0.989900
936.192530	0.990451
936.495428	0.989079
936.798287	0.990560
937.101108	0.989338
937.403890	0.988302
937.706632	0.988549
938.009336	0.986974
938.312002	0.985620
938.614628	0.984329
938.917216	0.983303
939.219765	0.981627
939.522275	0.982659
939.824747	0.982633
940.127179	0.983526
940.429573	0.984725
940.731929	0.984550
941.034246	0.984419
941.336524	0.986079
941.638763	0.986390
941.940964	0.986597
942.243126	0.986439
942.545250	0.987829
942.847335	0.988129
943.149381	0.987801
943.451389	0.988037
943.753359	0.989377
944.055290	0.989851
944.357182	0.989300
944.659036	0.989098
944.960851	0.990015
945.262628	0.989127
945.564367	0.989499
945.866067	0.989964
946.167729	0.990789
946.469352	0.989947
946.770937	0.989191
947.072484	0.991231
947.373992	0.989308
947.675462	0.989947
947.976893	0.990278
948.278286	0.991116
948.579641	0.992539
948.880958	0.990157
949.182236	0.991146
949.483476	0.990638
949.784678	0.989649
950.085841	0.991253
950.386967	0.990612
950.688054	0.990549
950.989103	0.990680
951.290114	0.989462
951.591087	0.989690
951.892021	0.989198
952.192917	0.988511
952.493776	0.987803
952.794596	0.987834
953.095378	0.988025
953.396122	0.988335
953.696828	0.987150
953.997496	0.990020
954.298126	0.990830
954.598718	0.989701
954.899272	0.990539
955.199788	0.989776
955.500266	0.992129
955.800706	0.992846
956.101108	0.992029
956.401472	0.993917
956.701798	0.993920
957.002087	0.992528
957.302337	0.993916
957.602550	0.994607
957.902724	0.994439
958.202861	0.995275
958.502960	0.995237
958.803022	0.994098
959.103045	0.995691
959.403031	0.995901
959.702979	0.994832
960.002889	0.995488
960.302762	0.994682
960.602596	0.995183
960.902393	0.995151
961.202153	0.996752
961.501875	0.996441
961.801559	0.994536
962.101205	0.995959
962.400814	0.996038
962.700385	0.996865
962.999918	0.995335
963.299414	0.996530
963.598873	0.996069
963.898293	0.996311
964.197677	0.995887
964.497022	0.997185
964.796331	0.996785
965.095601	0.996497
965.394835	0.995560
965.694030	0.996767
965.993189	0.996638
966.292309	0.996483
966.591393	0.997494
966.890439	0.997727
967.189447	0.996980
967.488419	0.997258
967.787353	0.995468
968.086249	0.996025
968.385108	0.996186
968.683930	0.996558
968.982714	0.996899
969.281462	0.996862
969.580172	0.996711
969.878844	0.996538
970.177480	0.997046
970.476078	0.997469
970.774639	0.997026
971.073162	0.997373
971.371649	0.996776
971.670098	0.996533
971.968510	0.997683
972.266885	0.995372
972.565223	0.996766
972.863524	0.995224
973.161788	0.994795
973.460014	0.997731
973.758204	0.995184
974.056356	0.995922
974.354471	0.993840
974.652550	0.996143
974.950591	0.995853
975.248595	0.996172
975.546563	0.997858
975.844493	0.998387
976.142386	0.996668
976.440243	0.996256
976.738062	0.996386
977.035845	0.997283
977.333590	0.997338
977.631299	0.997630
977.928971	0.996085
978.226606	0.995755
978.524204	0.995632
978.821765	0.998050
979.119290	0.996694
979.416777	0.996667
979.714228	0.997699
980.011642	0.995720
980.309020	0.996328
980.606360	0.996298
980.903664	0.998992
981.200931	0.996193
981.498162	0.994549
981.795356	0.994453
982.092513	0.993511
982.389633	0.993837
982.686717	0.991257
982.983764	0.991140
983.280775	0.990291
983.577749	0.990767
983.874686	0.991885
984.171587	0.991767
984.468451	0.992556
984.765279	0.994368
985.062070	0.993950
985.358824	0.994892
985.655543	0.994095
985.952224	0.996143
986.248869	0.995284
986.545478	0.997382
986.842050	0.998042
987.138586	0.994969
987.435086	0.997629
987.731549	0.998954
988.027975	0.997191
988.324366	0.996982
988.620719	0.997062
988.917037	0.996315
989.213318	0.998166
989.509563	0.997675
989.805772	0.998428
990.101944	0.997770
990.398080	0.996599
990.694180	0.997572
990.990244	0.996918
991.286271	0.998242
991.582262	0.997698
991.878217	0.997578
992.174136	0.998353
992.470019	0.998359
992.765865	0.997560
993.061676	0.998291
993.357450	0.997652
993.653188	0.996979
993.948890	0.996631
994.244556	0.997677
994.540186	0.996638
994.835780	0.996059
995.131337	0.997422
995.426859	0.996989
995.722345	0.997177
996.017795	0.996100
996.313208	0.996677
996.608586	0.995056
996.903928	0.996880
997.199234	0.996771
997.494504	0.995158
997.789738	0.995917
998.084936	0.997592
998.380099	0.997448
998.675225	0.997610
998.970316	0.997637
999.265371	0.998114
999.560390	0.997828
999.855373	0.998831
1000.150320	0.998174
1000.445232	0.999106
1000.740108	0.997536
1001.034948	0.998396
1001.329752	0.998947
1001.624521	0.998964
1001.919254	0.997723
1002.213951	0.999133
1002.508613	0.996157
1002.803239	1.000125
1003.097829	0.999219
1003.392384	0.999578
1003.686903	0.997593
1003.981386	0.998325
1004.275834	0.999140
1004.570246	0.998695
1004.864623	0.998165
1005.158964	0.999277
1005.453270	0.998292
1005.747540	0.998094
1006.041775	0.997061
1006.335974	1.000380
1006.630138	0.999005
1006.924266	1.000224
1007.218359	1.000046
1007.512416	0.997644
1007.806438	0.998987
1008.100425	0.999569
1008.394376	0.997635
1008.688292	0.998733
1008.982172	1.000457
1009.276017	0.998699
1009.569827	0.998112
1009.863602	0.998750
1010.157341	0.999207
1010.451045	0.998965
1010.744714	0.997765
1011.038347	0.998519
1011.331945	0.998418
1011.625508	0.997820
1011.919036	0.999504
1012.212528	0.998535
1012.505986	0.997151
1012.799408	0.998058
1013.092795	0.998766
1013.386147	0.999324
1013.679464	0.998840
1013.972745	0.998206
1014.265992	0.996345
1014.559204	0.998714
1014.852380	0.998688
1015.145521	0.998495
1015.438628	0.998512
1015.731699	0.999069
1016.024736	0.998855
1016.317737	0.997826
1016.610703	0.999556
1016.903635	1.000753
1017.196531	0.997212
1017.489393	0.998982
1017.782219	0.998244
1018.075011	0.998576
1018.367768	0.999394
1018.660490	0.999297
1018.953177	0.999297
1019.245829	0.999297
