Dividing Wavelength (nm)	Counts (n)	Blue Motor Position (mm): 0.000000	Red Motor Position (mm): 10.700000	
326.493990	1.002131
326.888308	1.002131
327.282561	1.002131
327.676750	1.000414
328.070874	0.999501
328.464933	1.000444
328.858929	0.998872
329.252859	0.999839
329.646726	0.999922
330.040528	0.999733
330.434265	0.999470
330.827938	1.000522
331.221547	1.001169
331.615091	0.999643
332.008571	1.000680
332.401986	1.000829
332.795338	1.001084
333.188625	0.997969
333.581847	0.999825
333.975006	0.998211
334.368100	0.999039
334.761129	0.999942
335.154095	0.999927
335.546996	0.997725
335.939833	0.993039
336.332606	0.993539
336.725315	0.994222
337.117960	0.994731
337.510540	0.994645
337.903056	0.994480
338.295508	0.992648
338.687896	0.994452
339.080220	0.994119
339.472480	0.993617
339.864676	0.993774
340.256807	0.994043
340.648875	0.994658
341.040879	0.993881
341.432818	0.993459
341.824694	0.993626
342.216506	0.994405
342.608253	0.993499
342.999937	0.994012
343.391557	0.993888
343.783113	0.993525
344.174605	0.993661
344.566033	0.994780
344.957397	0.993020
345.348697	0.993518
345.739934	0.993830
346.131106	0.992763
346.522215	0.992115
346.913260	0.993526
347.304241	0.994162
347.695159	0.993678
348.086012	0.991802
348.476802	0.994377
348.867528	0.993640
349.258191	0.991529
349.648789	0.993512
350.039324	0.994887
350.429796	0.994602
350.820203	0.994148
351.210548	0.994266
351.600828	0.994274
351.991045	0.994232
352.381198	0.992152
352.771288	0.994316
353.161314	0.993193
353.551276	0.995112
353.941175	0.992986
354.331010	0.993204
354.720782	0.994514
355.110490	0.993128
355.500135	0.992972
355.889717	0.992322
356.279235	0.993449
356.668689	0.992987
357.058080	0.993399
357.447408	0.994098
357.836672	0.993279
358.225873	0.994098
358.615010	0.993630
359.004084	0.994051
359.393095	0.993806
359.782043	0.993661
360.170927	0.993612
360.559748	0.993965
360.948505	0.992699
361.337199	0.992182
361.725830	0.992603
362.114398	0.993332
362.502903	0.993154
362.891344	0.994479
363.279722	0.992572
363.668037	0.994212
364.056289	0.992227
364.444478	0.994469
364.832603	0.992642
365.220665	0.992922
365.608665	0.992142
365.996601	0.992472
366.384474	0.993221
366.772284	0.993195
367.160031	0.991893
367.547715	0.991378
367.935336	0.992996
368.322893	0.992455
368.710388	0.990999
369.097820	0.992538
369.485189	0.992079
369.872495	0.990859
370.259738	0.990853
370.646918	0.992515
371.034035	0.993144
371.421090	0.991470
371.808081	0.991553
372.195010	0.992995
372.581875	0.993321
372.968678	0.992932
373.355418	0.991862
373.742096	0.992314
374.128710	0.992903
374.515262	0.992213
374.901751	0.991918
375.288177	0.991607
375.674540	0.993000
376.060841	0.990523
376.447079	0.992566
376.833254	0.992562
377.219367	0.991350
377.605417	0.992450
377.991404	0.991699
378.377329	0.991556
378.763191	0.992180
379.148991	0.992467
379.534727	0.992627
379.920402	0.991740
380.306013	0.991590
380.691563	0.991283
381.077049	0.989384
381.462474	0.989669
381.847835	0.988552
382.233134	0.987024
382.618371	0.986224
383.003545	0.982500
383.388657	0.980773
383.773706	0.978902
384.158693	0.975856
384.543618	0.971120
384.928480	0.968139
385.313280	0.963858
385.698017	0.960877
386.082692	0.954875
386.467305	0.950435
386.851856	0.945253
387.236344	0.939001
387.620770	0.931113
388.005133	0.926412
388.389435	0.920742
388.773674	0.913276
389.157851	0.905365
389.541965	0.899130
389.926018	0.894424
390.310008	0.883995
390.693936	0.874916
391.077802	0.866395
391.461606	0.859254
391.845348	0.847763
392.229027	0.841557
392.612645	0.830701
392.996200	0.818234
393.379694	0.807512
393.763125	0.794826
394.146494	0.788840
394.529801	0.774936
394.913047	0.762882
395.296230	0.758066
395.679351	0.744392
396.062410	0.734461
396.445408	0.728863
396.828343	0.718624
397.211217	0.707658
397.594028	0.709979
397.976778	0.695529
398.359466	0.685931
398.742092	0.675744
399.124656	0.680106
399.507158	0.665042
399.889598	0.656793
400.271977	0.644279
400.654294	0.644232
401.036549	0.637850
401.418742	0.637516
401.800874	0.620367
402.182944	0.614390
402.564952	0.602040
402.946898	0.600875
403.328783	0.598725
403.710606	0.607016
404.092367	0.580427
404.474067	0.582206
404.855705	0.578532
405.237282	0.586352
405.618797	0.571005
406.000250	0.565314
406.381642	0.554770
406.762972	0.557497
407.144240	0.555481
407.525447	0.554666
407.906593	0.546927
408.287677	0.541101
408.668700	0.548645
409.049661	0.541924
409.430560	0.536897
409.811399	0.545248
410.192176	0.526720
410.572891	0.533461
410.953545	0.521203
411.334138	0.534060
411.714669	0.527618
412.095139	0.538458
412.475547	0.522947
412.855894	0.525105
413.236180	0.524238
413.616405	0.528997
413.996568	0.519449
414.376670	0.525984
414.756711	0.530379
415.136691	0.527114
415.516609	0.518237
415.896466	0.514426
416.276262	0.510802
416.655997	0.512854
417.035670	0.494122
417.415283	0.485923
417.794834	0.490569
418.174324	0.495339
418.553753	0.505185
418.933121	0.486861
419.312428	0.480780
419.691674	0.486283
420.070859	0.475354
420.449983	0.483002
420.829045	0.472250
421.208047	0.481789
421.586988	0.473961
421.965867	0.473726
422.344686	0.462015
422.723444	0.474801
423.102141	0.491752
423.480777	0.464413
423.859352	0.485272
424.237866	0.462021
424.616319	0.462587
424.994712	0.453628
425.373044	0.463911
425.751314	0.452697
426.129524	0.468585
426.507673	0.452663
426.885762	0.446524
427.263789	0.451418
427.641756	0.461545
428.019662	0.451495
428.397508	0.450971
428.775292	0.454620
429.153016	0.446790
429.530679	0.453649
429.908282	0.446360
430.285824	0.456494
430.663305	0.434742
431.040726	0.456121
431.418086	0.456354
431.795385	0.447676
432.172624	0.446502
432.549802	0.446900
432.926920	0.446118
433.303977	0.445149
433.680974	0.442512
434.057910	0.441145
434.434786	0.440934
434.811601	0.443154
435.188355	0.425490
435.565050	0.434792
435.941683	0.436801
436.318257	0.420504
436.694770	0.421053
437.071222	0.419425
437.447614	0.423750
437.823946	0.430061
438.200218	0.419608
438.576429	0.429537
438.952580	0.422636
439.328670	0.419444
439.704700	0.425941
440.080670	0.427093
440.456580	0.408074
440.832429	0.415874
441.208218	0.426505
441.583947	0.415785
441.959616	0.415496
442.335224	0.420392
442.710773	0.411807
443.086261	0.408971
443.461689	0.423436
443.837057	0.413195
444.212365	0.403262
444.587612	0.410016
444.962800	0.399911
445.337927	0.401512
445.712995	0.427993
446.088002	0.390205
446.462949	0.400514
446.837837	0.404777
447.212664	0.393854
447.587431	0.385938
447.962139	0.356396
448.336786	0.315605
448.711374	0.325926
449.085901	0.369905
449.460369	0.374176
449.834776	0.377779
450.209124	0.357148
450.583412	0.349433
450.957640	0.342582
451.331808	0.353792
451.705917	0.377749
452.079965	0.381704
452.453954	0.370011
452.827883	0.377152
453.201752	0.371950
453.575562	0.382993
453.949311	0.371648
454.323001	0.377663
454.696632	0.373397
455.070202	0.366356
455.443713	0.357974
455.817164	0.353112
456.190556	0.348525
456.563888	0.345379
456.937160	0.342890
457.310373	0.360535
457.683526	0.359145
458.056619	0.364979
458.429653	0.365772
458.802628	0.368807
459.175542	0.362919
459.548398	0.345774
459.921194	0.338316
460.293930	0.338053
460.666607	0.316074
461.039224	0.304147
461.411782	0.299953
461.784280	0.299131
462.156719	0.303409
462.529099	0.307805
462.901419	0.323579
463.273680	0.328374
463.645882	0.327036
464.018024	0.333488
464.390106	0.326445
464.762130	0.310994
465.134094	0.293857
465.505999	0.263109
465.877845	0.233978
466.249631	0.221015
466.621358	0.228236
466.993026	0.241994
467.364634	0.248361
467.736184	0.256874
468.107674	0.265760
468.479105	0.264634
468.850477	0.271538
469.221790	0.278146
469.593043	0.288761
469.964238	0.293530
470.335373	0.292096
470.706449	0.290738
471.077467	0.291808
471.448425	0.253542
471.819324	0.229443
472.190164	0.228841
472.560945	0.257529
472.931667	0.279484
473.302330	0.283648
473.672934	0.295442
474.043479	0.283960
474.413965	0.285523
474.784393	0.289109
475.154761	0.284238
475.525070	0.281506
475.895321	0.286962
476.265513	0.281031
476.635645	0.276100
477.005719	0.276342
477.375734	0.272867
477.745691	0.266147
478.115588	0.262657
478.485427	0.256268
478.855207	0.243343
479.224928	0.225799
479.594591	0.213857
479.964194	0.217531
480.333739	0.218653
480.703226	0.219942
481.072653	0.218409
481.442022	0.214109
481.811333	0.210656
482.180584	0.214024
482.549777	0.219534
482.918912	0.222805
483.287988	0.222297
483.657005	0.222163
484.025964	0.228517
484.394864	0.225943
484.763706	0.226379
485.132489	0.231250
485.501213	0.232183
485.869879	0.230348
486.238487	0.233891
486.607036	0.231657
486.975527	0.236047
487.343959	0.232086
487.712333	0.231132
488.080648	0.232432
488.448905	0.231962
488.817104	0.233139
489.185244	0.227613
489.553326	0.224377
489.921350	0.214517
490.289315	0.196822
490.657222	0.191928
491.025070	0.193368
491.392861	0.195285
491.760593	0.200736
492.128267	0.206751
492.495883	0.212173
492.863440	0.218115
493.230939	0.224469
493.598380	0.225934
493.965763	0.228068
494.333088	0.230398
494.700354	0.231703
495.067563	0.231044
495.434713	0.233953
495.801805	0.232040
496.168839	0.233485
496.535815	0.234855
496.902733	0.234669
497.269593	0.236436
497.636395	0.233932
498.003139	0.234458
498.369825	0.237600
498.736453	0.233741
499.103023	0.235536
499.469535	0.234634
499.835989	0.235130
500.202385	0.236223
500.568723	0.239194
500.935003	0.234276
501.301226	0.238631
501.667390	0.232997
502.033497	0.230843
502.399546	0.234425
502.765537	0.235674
503.131470	0.234442
503.497345	0.230442
503.863163	0.239566
504.228923	0.232454
504.594625	0.231247
504.960269	0.236497
505.325856	0.231640
505.691385	0.236079
506.056856	0.232675
506.422270	0.232061
506.787625	0.234597
507.152924	0.231956
507.518164	0.232407
507.883347	0.234218
508.248472	0.235901
508.613540	0.231036
508.978550	0.233309
509.343503	0.233842
509.708398	0.231618
510.073236	0.229141
510.438016	0.229350
510.802738	0.230175
511.167403	0.229014
511.532010	0.231118
511.896561	0.226380
512.261053	0.225119
512.625488	0.227558
512.989866	0.227895
513.354186	0.228082
513.718449	0.229711
514.082655	0.226141
514.446803	0.228426
514.810894	0.226002
515.174927	0.228786
515.538904	0.228255
515.902822	0.225148
516.266684	0.227343
516.630488	0.228760
516.994235	0.227105
517.357925	0.226032
517.721558	0.224543
518.085133	0.224102
518.448651	0.224096
518.812112	0.226331
519.175516	0.225866
519.538863	0.223365
519.902152	0.225422
520.265385	0.222044
520.628560	0.223652
520.991678	0.224021
521.354739	0.223015
521.717743	0.224291
522.080690	0.224930
522.443580	0.222168
522.806413	0.223090
523.169189	0.222289
523.531908	0.221337
523.894569	0.224844
524.257174	0.224759
524.619722	0.222428
524.982213	0.223467
525.344647	0.222675
525.707025	0.223541
526.069345	0.221429
526.431608	0.223003
526.793815	0.221178
527.155964	0.225335
527.518057	0.224275
527.880093	0.225222
528.242072	0.223861
528.603995	0.225837
528.965860	0.227420
529.327669	0.226196
529.689421	0.227062
530.051117	0.228256
530.412755	0.225446
530.774337	0.227950
531.135862	0.228203
531.497331	0.227630
531.858743	0.230674
532.220098	0.227325
532.581396	0.229792
532.942638	0.230215
533.303824	0.230784
533.664953	0.231040
534.026025	0.232819
534.387040	0.230760
534.747999	0.230928
535.108902	0.229758
535.469748	0.234350
535.830537	0.232391
536.191270	0.232733
536.551947	0.232459
536.912567	0.232418
537.273131	0.233883
537.633638	0.234140
537.994089	0.234480
538.354483	0.235614
538.714821	0.232643
539.075103	0.232251
539.435328	0.233409
539.795497	0.237017
540.155609	0.233600
540.515665	0.231763
540.875665	0.237365
541.235609	0.236064
541.595496	0.235983
541.955328	0.232423
542.315102	0.235162
542.674821	0.236358
543.034483	0.236234
543.394090	0.235871
543.753640	0.237769
544.113134	0.232703
544.472571	0.236205
544.831953	0.232875
545.191278	0.237145
545.550548	0.236544
545.909761	0.233298
546.268918	0.233861
546.628019	0.232665
546.987064	0.235141
547.346053	0.236927
547.704986	0.234979
548.063863	0.235205
548.422684	0.235082
548.781449	0.237096
549.140158	0.234793
549.498811	0.237499
549.857408	0.240719
550.215949	0.235701
550.574434	0.238426
550.932864	0.236664
551.291237	0.235202
551.649555	0.236334
552.007817	0.236150
552.366022	0.237269
552.724173	0.237440
553.082267	0.237687
553.440305	0.234522
553.798288	0.238897
554.156215	0.235410
554.514086	0.236307
554.871902	0.239348
555.229661	0.238629
555.587365	0.239137
555.945014	0.241714
556.302606	0.238500
556.660143	0.240907
557.017625	0.237511
557.375050	0.239983
557.732421	0.236784
558.089735	0.238930
558.446994	0.238848
558.804197	0.237905
559.161345	0.238141
559.518437	0.241427
559.875474	0.239249
560.232455	0.238651
560.589381	0.239896
560.946251	0.239950
561.303065	0.237490
561.659825	0.238968
562.016528	0.240287
562.373177	0.243118
562.729770	0.240753
563.086307	0.242796
563.442789	0.240542
563.799216	0.243109
564.155587	0.242106
564.511904	0.243214
564.868164	0.243434
565.224370	0.243319
565.580520	0.244846
565.936615	0.244753
566.292654	0.247483
566.648638	0.244543
567.004567	0.245616
567.360441	0.246102
567.716260	0.248167
568.072023	0.245831
568.427732	0.246781
568.783385	0.249213
569.138982	0.247291
569.494525	0.247236
569.850013	0.249853
570.205445	0.248357
570.560823	0.250699
570.916145	0.252854
571.271412	0.251036
571.626625	0.252376
571.981782	0.252964
572.336884	0.253855
572.691931	0.253617
573.046923	0.255012
573.401860	0.255881
573.756743	0.257505
574.111570	0.256365
574.466342	0.256933
574.821059	0.256196
575.175722	0.258874
575.530330	0.258731
575.884882	0.258885
576.239380	0.261055
576.593823	0.261449
576.948211	0.260998
577.302544	0.264377
577.656823	0.263923
578.011047	0.264044
578.365216	0.264721
578.719330	0.266830
579.073389	0.266484
579.427394	0.267844
579.781344	0.268568
580.135239	0.269927
580.489080	0.269646
580.842866	0.272412
581.196597	0.272287
581.550273	0.271237
581.903895	0.272056
582.257463	0.270289
582.610975	0.273795
582.964434	0.272827
583.317837	0.275703
583.671186	0.276153
584.024481	0.275909
584.377721	0.278569
584.730906	0.279058
585.084037	0.278510
585.437113	0.279948
585.790135	0.279595
586.143103	0.282310
586.496016	0.284212
586.848874	0.281325
587.201679	0.281890
587.554428	0.285614
587.907124	0.283782
588.259765	0.284529
588.612352	0.285094
588.964884	0.288978
589.317362	0.288342
589.669786	0.288394
590.022155	0.286927
590.374470	0.286533
590.726731	0.288505
591.078937	0.292963
591.431090	0.289681
591.783188	0.293692
592.135232	0.294098
592.487222	0.294040
592.839157	0.292217
593.191038	0.294554
593.542866	0.296256
593.894639	0.300323
594.246358	0.298193
594.598022	0.297573
594.949633	0.301130
595.301190	0.301957
595.652692	0.300905
596.004141	0.297200
596.355535	0.305036
596.706876	0.305469
597.058162	0.308147
597.409395	0.305261
597.760573	0.303043
598.111698	0.306204
598.462768	0.306959
598.813785	0.307793
599.164748	0.309709
599.515657	0.309680
599.866511	0.312891
600.217312	0.308133
600.568060	0.313939
600.918753	0.310179
601.269392	0.310873
601.619978	0.314221
601.970510	0.311854
602.320988	0.311994
602.671412	0.309816
603.021783	0.312127
603.372100	0.313087
603.722363	0.313127
604.072572	0.314510
604.422728	0.313979
604.772830	0.315885
605.122878	0.315639
605.472872	0.316158
605.822813	0.314154
606.172701	0.317148
606.522534	0.314316
606.872314	0.314447
607.222041	0.315383
607.571714	0.313616
607.921333	0.314823
608.270899	0.314789
608.620411	0.311349
608.969870	0.315277
609.319276	0.315474
609.668627	0.315615
610.017926	0.313987
610.367171	0.312561
610.716362	0.313473
611.065500	0.313273
611.414585	0.312306
611.763616	0.312641
612.112594	0.312890
612.461518	0.312341
612.810389	0.310413
613.159207	0.312402
613.507971	0.314572
613.856682	0.310183
614.205340	0.311633
614.553945	0.308220
614.902496	0.312381
615.250994	0.310410
615.599439	0.311271
615.947830	0.310593
616.296169	0.311436
616.644454	0.311179
616.992686	0.310916
617.340864	0.308770
617.688990	0.312683
618.037063	0.309367
618.385082	0.311167
618.733048	0.308013
619.080961	0.310248
619.428821	0.309301
619.776628	0.309499
620.124382	0.311245
620.472083	0.311493
620.819731	0.310763
621.167326	0.314820
621.514868	0.314389
621.862357	0.318595
622.209793	0.318440
622.557176	0.320812
622.904506	0.321827
623.251783	0.323798
623.599007	0.326266
623.946179	0.325481
624.293297	0.327807
624.640363	0.331718
624.987376	0.331963
625.334336	0.334668
625.681243	0.337183
626.028097	0.337665
626.374899	0.338492
626.721647	0.339183
627.068343	0.342080
627.414987	0.343002
627.761577	0.345337
628.108115	0.343480
628.454600	0.348830
628.801032	0.346092
629.147412	0.348564
629.493739	0.348504
629.840014	0.351745
630.186236	0.349139
630.532405	0.354609
630.878521	0.352322
631.224585	0.354492
631.570597	0.357883
631.916556	0.356291
632.262462	0.356587
632.608316	0.358734
632.954117	0.359517
633.299866	0.360083
633.645562	0.360610
633.991206	0.365190
634.336797	0.367905
634.682336	0.370292
635.027823	0.371799
635.373257	0.372163
635.718639	0.376068
636.063968	0.374965
636.409245	0.381028
636.754470	0.380993
637.099642	0.383676
637.444762	0.387037
637.789829	0.386298
638.134845	0.389890
638.479808	0.390822
638.824719	0.390071
639.169577	0.394458
639.514383	0.393409
639.859137	0.397713
640.203839	0.397421
640.548489	0.398015
640.893086	0.399486
641.237632	0.401011
641.582125	0.399616
641.926566	0.400630
642.270955	0.401001
642.615292	0.401155
642.959576	0.400402
643.303809	0.400772
643.647990	0.400577
643.992118	0.401333
644.336195	0.404599
644.680219	0.403103
645.024192	0.403686
645.368112	0.397088
645.711981	0.396267
646.055797	0.391448
646.399562	0.394381
646.743274	0.385825
647.086935	0.383874
647.430544	0.384270
647.774101	0.382519
648.117606	0.382134
648.461059	0.382852
648.804460	0.384608
649.147810	0.390349
649.491108	0.392111
649.834354	0.393553
650.177548	0.398831
650.520690	0.404320
650.863781	0.405615
651.206820	0.405245
651.549807	0.409940
651.892742	0.413279
652.235626	0.412736
652.578458	0.413830
652.921238	0.419366
653.263967	0.417888
653.606644	0.421794
653.949269	0.421906
654.291843	0.425349
654.634365	0.421916
654.976836	0.425478
655.319255	0.425350
655.661622	0.426985
656.003938	0.427390
656.346203	0.429972
656.688416	0.428356
657.030577	0.431420
657.372687	0.433427
657.714746	0.434297
658.056753	0.430744
658.398708	0.435105
658.740612	0.436092
659.082465	0.432405
659.424266	0.432931
659.766016	0.432050
660.107715	0.435390
660.449362	0.433988
660.790958	0.434403
661.132503	0.434738
661.473996	0.432756
661.815438	0.433882
662.156829	0.433580
662.498168	0.434134
662.839456	0.436135
663.180693	0.433665
663.521879	0.433870
663.863013	0.434679
664.204097	0.433316
664.545129	0.429766
664.886110	0.430158
665.227040	0.427779
665.567918	0.430126
665.908746	0.428302
666.249522	0.427874
666.590248	0.428950
666.930922	0.427005
667.271545	0.426201
667.612118	0.426141
667.952639	0.427321
668.293109	0.427074
668.633528	0.429293
668.973896	0.429004
669.314213	0.429046
669.654480	0.431349
669.994695	0.431144
670.334859	0.432398
670.674973	0.432560
671.015035	0.432645
671.355047	0.432721
671.695008	0.433437
672.034918	0.435615
672.374777	0.434983
672.714585	0.436412
673.054342	0.435706
673.394049	0.436805
673.733705	0.433981
674.073310	0.434913
674.412864	0.437594
674.752368	0.438384
675.091820	0.438327
675.431223	0.443123
675.770574	0.442315
676.109875	0.446370
676.449125	0.445405
676.788324	0.448374
677.127473	0.454069
677.466571	0.453296
677.805619	0.455145
678.144616	0.455482
678.483562	0.457556
678.822458	0.459611
679.161303	0.461620
679.500098	0.461869
679.838842	0.463716
680.177535	0.463043
680.516179	0.461421
680.854771	0.460664
681.193314	0.453691
681.531805	0.444956
681.870247	0.433596
682.208638	0.426022
682.546978	0.424854
682.885268	0.426690
683.223508	0.433434
683.561697	0.436770
683.899836	0.439603
684.237925	0.443257
684.575963	0.445641
684.913951	0.448472
685.251889	0.443989
685.589776	0.446004
685.927614	0.448775
686.265401	0.442999
686.603137	0.444422
686.940824	0.438682
687.278460	0.436620
687.616046	0.436107
687.953582	0.430652
688.291068	0.432432
688.628504	0.427716
688.965889	0.429834
689.303224	0.434257
689.640510	0.438322
689.977745	0.443829
690.314930	0.452356
690.652065	0.456393
690.989150	0.464043
691.326185	0.470503
691.663170	0.475184
692.000105	0.482589
692.336990	0.489336
692.673825	0.491552
693.010610	0.498329
693.347345	0.503828
693.684030	0.505196
694.020665	0.509943
694.357251	0.518833
694.693786	0.518805
695.030272	0.522674
695.366707	0.526423
695.703093	0.530184
696.039429	0.527658
696.375716	0.529740
696.711952	0.531728
697.048139	0.534132
697.384276	0.535607
697.720363	0.534150
698.056400	0.533518
698.392388	0.538491
698.728326	0.542399
699.064214	0.545161
699.400053	0.544859
699.735842	0.549070
700.071581	0.552156
700.407270	0.554369
700.742910	0.557755
701.078501	0.564134
701.414042	0.563907
701.749533	0.566836
702.084974	0.575857
702.420366	0.568921
702.755709	0.575978
703.091002	0.583725
703.426246	0.577615
703.761440	0.582591
704.096584	0.587884
704.431679	0.584876
704.766725	0.587359
705.101721	0.589379
705.436668	0.584958
705.771565	0.592269
706.106413	0.588273
706.441212	0.584017
706.775961	0.583017
707.110661	0.586088
707.445311	0.581788
707.779913	0.578893
708.114465	0.577574
708.448967	0.575009
708.783421	0.566095
709.117825	0.560880
709.452180	0.560646
709.786485	0.554670
710.120742	0.544133
710.454949	0.547045
710.789107	0.538324
711.123216	0.529695
711.457275	0.531729
711.791286	0.521781
712.125247	0.521119
712.459159	0.531075
712.793023	0.524273
713.126837	0.528420
713.460602	0.529005
713.794318	0.538899
714.127985	0.537555
714.461602	0.547038
714.795171	0.550448
715.128691	0.558335
715.462162	0.565835
715.795584	0.571281
716.128957	0.574429
716.462281	0.580691
716.795556	0.584584
717.128782	0.590022
717.461960	0.599051
717.795088	0.597635
718.128167	0.603369
718.461198	0.612312
718.794180	0.613036
719.127113	0.615735
719.459997	0.619409
719.792833	0.625503
720.125619	0.626810
720.458357	0.632896
720.791046	0.632267
721.123686	0.635854
721.456278	0.642681
721.788821	0.640481
722.121315	0.643732
722.453761	0.648225
722.786158	0.646169
723.118506	0.643163
723.450805	0.650750
723.783056	0.646646
724.115259	0.643946
724.447412	0.643426
724.779518	0.644837
725.111574	0.643531
725.443582	0.638875
725.775542	0.641006
726.107453	0.633896
726.439315	0.633117
726.771129	0.631734
727.102895	0.625801
727.434612	0.617793
727.766281	0.615522
728.097901	0.615494
728.429473	0.614315
728.760996	0.613749
729.092471	0.613129
729.423897	0.617111
729.755276	0.616816
730.086606	0.616248
730.417887	0.611587
730.749120	0.602326
731.080305	0.593160
731.411442	0.588954
731.742530	0.593555
732.073570	0.592978
732.404562	0.584676
732.735506	0.586707
733.066401	0.590888
733.397249	0.600433
733.728048	0.611963
734.058798	0.624858
734.389501	0.634521
734.720156	0.643578
735.050762	0.653199
735.381320	0.654335
735.711831	0.662565
736.042293	0.668035
736.372707	0.663894
736.703073	0.667928
737.033391	0.670385
737.363661	0.667776
737.693883	0.662733
738.024056	0.661690
738.354182	0.661834
738.684260	0.651331
739.014290	0.647843
739.344272	0.648328
739.674207	0.642047
740.004093	0.640901
740.333931	0.641491
740.663722	0.641563
740.993464	0.642181
741.323159	0.645886
741.652806	0.650472
741.982405	0.655193
742.311956	0.659958
742.641460	0.662261
742.970915	0.666001
743.300323	0.673389
743.629683	0.679680
743.958996	0.681664
744.288260	0.686231
744.617477	0.692415
744.946647	0.694417
745.275768	0.699062
745.604842	0.699375
745.933869	0.709793
746.262847	0.709152
746.591778	0.703520
746.920662	0.709004
747.249498	0.716022
747.578286	0.707279
747.907027	0.702748
748.235720	0.704136
748.564365	0.698572
748.892963	0.699125
749.221514	0.701664
749.550017	0.706189
749.878473	0.706949
750.206881	0.712930
750.535242	0.713784
750.863555	0.713582
751.191821	0.714456
751.520039	0.717918
751.848210	0.722820
752.176334	0.715263
752.504411	0.714771
752.832440	0.722573
753.160421	0.726522
753.488356	0.724869
753.816243	0.721750
754.144082	0.730347
754.471875	0.734556
754.799620	0.729515
755.127318	0.731105
755.454969	0.730651
755.782572	0.730008
756.110129	0.736213
756.437638	0.737085
756.765100	0.734100
757.092515	0.731983
757.419882	0.730964
757.747203	0.736736
758.074477	0.736236
758.401703	0.732986
758.728882	0.729098
759.056014	0.727295
759.383099	0.725732
759.710138	0.726870
760.037129	0.723623
760.364073	0.716774
760.690970	0.720044
761.017820	0.725915
761.344623	0.721272
761.671379	0.711746
761.998088	0.700057
762.324751	0.678131
762.651366	0.635712
762.977935	0.568370
763.304456	0.516108
763.630931	0.506608
763.957359	0.545955
764.283740	0.590335
764.610074	0.617975
764.936362	0.649523
765.262602	0.675629
765.588796	0.697214
765.914943	0.715413
766.241044	0.733081
766.567097	0.739600
766.893104	0.750109
767.219064	0.756293
767.544978	0.762288
767.870845	0.776129
768.196665	0.778889
768.522438	0.777646
768.848165	0.779196
769.173846	0.788565
769.499479	0.792340
769.825066	0.795430
770.150607	0.801342
770.476101	0.796848
770.801548	0.797830
771.126949	0.809067
771.452303	0.813000
771.777611	0.812444
772.102872	0.810267
772.428087	0.816568
772.753256	0.819796
773.078378	0.821855
773.403453	0.830539
773.728482	0.835168
774.053465	0.828128
774.378401	0.832155
774.703291	0.840414
775.028135	0.840285
775.352932	0.841973
775.677683	0.845089
776.002388	0.844855
776.327046	0.843871
776.651658	0.848045
776.976224	0.851163
777.300743	0.851856
777.625216	0.854835
777.949643	0.855111
778.274024	0.856765
778.598359	0.856665
778.922647	0.856508
779.246889	0.856052
779.571086	0.860792
779.895236	0.863028
780.219339	0.859156
780.543397	0.856080
780.867409	0.855195
781.191374	0.857851
781.515294	0.859314
781.839167	0.857421
782.162995	0.861909
782.486776	0.858538
782.810511	0.859629
783.134201	0.863020
783.457844	0.860416
783.781441	0.862849
784.104993	0.869071
784.428498	0.869993
784.751958	0.864903
785.075372	0.866934
785.398739	0.871896
785.722061	0.867685
786.045337	0.862571
786.368568	0.867931
786.691752	0.871109
787.014891	0.856399
787.337983	0.847877
787.661030	0.839779
787.984031	0.822675
788.306987	0.808195
788.629897	0.811796
788.952760	0.815192
789.275579	0.819997
789.598351	0.834727
789.921078	0.847810
790.243759	0.850130
790.566395	0.854508
790.888984	0.862125
791.211529	0.866878
791.534027	0.870022
791.856480	0.872372
792.178888	0.878026
792.501249	0.880342
792.823566	0.881639
793.145836	0.881674
793.468062	0.883755
793.790241	0.882825
794.112375	0.881923
794.434464	0.877905
794.756507	0.876357
795.078505	0.875740
795.400457	0.870990
795.722364	0.859054
796.044226	0.851578
796.366042	0.850892
796.687812	0.853342
797.009538	0.849836
797.331218	0.853144
797.652852	0.858025
797.974442	0.863546
798.295986	0.862121
798.617484	0.865597
798.938938	0.870007
799.260346	0.874353
799.581709	0.877247
799.903026	0.878646
800.224299	0.879340
800.545526	0.883749
800.866708	0.887555
801.187845	0.890580
801.508936	0.891151
801.829983	0.889135
802.150984	0.891196
802.471940	0.897505
802.792851	0.896045
803.113717	0.897225
803.434538	0.895087
803.755314	0.897416
804.076045	0.900024
804.396731	0.899493
804.717372	0.899361
805.037967	0.900038
805.358518	0.898904
805.679024	0.896289
805.999485	0.895550
806.319901	0.895583
806.640272	0.897018
806.960598	0.896210
807.280879	0.892158
807.601115	0.890244
807.921306	0.895540
808.241453	0.893884
808.561554	0.892652
808.881611	0.893648
809.201623	0.894395
809.521590	0.894970
809.841513	0.896515
810.161390	0.895820
810.481223	0.897515
810.801011	0.899444
811.120755	0.903136
811.440453	0.899636
811.760107	0.899713
812.079716	0.898859
812.399281	0.902544
812.718801	0.904599
813.038276	0.906625
813.357707	0.905855
813.677093	0.902649
813.996434	0.906307
814.315731	0.906913
814.634983	0.908580
814.954191	0.906725
815.273354	0.903602
815.592473	0.900300
815.911547	0.899141
816.230577	0.897399
816.549562	0.895601
816.868502	0.895725
817.187399	0.891958
817.506250	0.885463
817.825058	0.888867
818.143821	0.884471
818.462539	0.879529
818.781213	0.871428
819.099843	0.860462
819.418429	0.844877
819.736970	0.826920
820.055466	0.807828
820.373919	0.782211
820.692327	0.749438
821.010691	0.713229
821.329011	0.635153
821.647286	0.518599
821.965517	0.404197
822.283704	0.361133
822.601847	0.362428
822.919945	0.397477
823.237999	0.431758
823.556010	0.479126
823.873976	0.535919
824.191897	0.586133
824.509775	0.629992
824.827609	0.675088
825.145398	0.697721
825.463144	0.701017
825.780845	0.683533
826.098502	0.664755
826.416116	0.619157
826.733685	0.574239
827.051210	0.564983
827.368692	0.580384
827.686129	0.618126
828.003522	0.671547
828.320872	0.720355
828.638177	0.764115
828.955439	0.797292
829.272656	0.820168
829.589830	0.837009
829.906960	0.852099
830.224046	0.864948
830.541088	0.874654
830.858086	0.880452
831.175041	0.885522
831.491952	0.885073
831.808819	0.881692
832.125642	0.875943
832.442421	0.860187
832.759157	0.837683
833.075849	0.791415
833.392497	0.726527
833.709101	0.685528
834.025662	0.695611
834.342179	0.727407
834.658653	0.766900
834.975083	0.803484
835.291469	0.828292
835.607811	0.852604
835.924110	0.868896
836.240366	0.886131
836.556578	0.899961
836.872746	0.907680
837.188871	0.914420
837.504952	0.918352
837.820990	0.922946
838.136984	0.925977
838.452935	0.928228
838.768842	0.929619
839.084706	0.924160
839.400526	0.896936
839.716303	0.856901
840.032037	0.834777
840.347727	0.837916
840.663373	0.857085
840.978977	0.878241
841.294537	0.900646
841.610054	0.916858
841.925527	0.925829
842.240957	0.931349
842.556344	0.938256
842.871687	0.945456
843.186987	0.949724
843.502244	0.949055
843.817458	0.950306
844.132629	0.955291
844.447756	0.959246
844.762840	0.959540
845.077881	0.958611
845.392879	0.959327
845.707833	0.962888
846.022745	0.964804
846.337613	0.963784
846.652438	0.965893
846.967221	0.963188
847.281960	0.964000
847.596656	0.966292
847.911309	0.964640
848.225919	0.966816
848.540485	0.967900
848.855009	0.968347
849.169490	0.967241
849.483928	0.968966
849.798323	0.968935
850.112675	0.968995
850.426984	0.968735
850.741251	0.969131
851.055474	0.968984
851.369654	0.967689
851.683792	0.969254
851.997887	0.968166
852.311938	0.969968
852.625947	0.969064
852.939914	0.968291
853.253837	0.969390
853.567718	0.968658
853.881555	0.970685
854.195350	0.967906
854.509103	0.968808
854.822812	0.970004
855.136479	0.970611
855.450103	0.968806
855.763685	0.968071
856.077224	0.968809
856.390720	0.970201
856.704173	0.970589
857.017584	0.968339
857.330953	0.966636
857.644278	0.967206
857.957561	0.968420
858.270802	0.967126
858.584000	0.967593
858.897155	0.965879
859.210268	0.967528
859.523339	0.967304
859.836367	0.969631
860.149352	0.970870
860.462295	0.968227
860.775195	0.969209
861.088054	0.968953
861.400869	0.968325
861.713642	0.969647
862.026373	0.968974
862.339062	0.970020
862.651708	0.967768
862.964312	0.966840
863.276873	0.968087
863.589392	0.967990
863.901869	0.967245
864.214303	0.963952
864.526696	0.962976
864.839045	0.963210
865.151353	0.959794
865.463619	0.962396
865.775842	0.960987
866.088023	0.961515
866.400162	0.960834
866.712258	0.962347
867.024313	0.962946
867.336325	0.962389
867.648296	0.962928
867.960224	0.961011
868.272110	0.960853
868.583954	0.963398
868.895755	0.962654
869.207515	0.960651
869.519233	0.958196
869.830909	0.960300
870.142542	0.961768
870.454134	0.961506
870.765684	0.960554
871.077191	0.957221
871.388657	0.957797
871.700081	0.956609
872.011463	0.957291
872.322803	0.957569
872.634101	0.956229
872.945357	0.954396
873.256571	0.951874
873.567744	0.952253
873.878874	0.953167
874.189963	0.952053
874.501010	0.950480
874.812015	0.950036
875.122979	0.950570
875.433900	0.952050
875.744780	0.953450
876.055618	0.950708
876.366415	0.948378
876.677169	0.948983
876.987882	0.950786
877.298554	0.948691
877.609183	0.945940
877.919771	0.943657
878.230317	0.940907
878.540822	0.939757
878.851285	0.933326
879.161707	0.925886
879.472087	0.913407
879.782425	0.896249
880.092722	0.862123
880.402977	0.808186
880.713191	0.746761
881.023363	0.685862
881.333494	0.651513
881.643583	0.623982
881.953631	0.624215
882.263637	0.652291
882.573602	0.692172
882.883526	0.718319
883.193408	0.742524
883.503248	0.764858
883.813048	0.794384
884.122806	0.822726
884.432522	0.847774
884.742197	0.866783
885.051831	0.878975
885.361424	0.887966
885.670975	0.901935
885.980485	0.911495
886.289954	0.918067
886.599382	0.923842
886.908768	0.927599
887.218113	0.933607
887.527417	0.937233
887.836680	0.940656
888.145901	0.943173
888.455082	0.945237
888.764221	0.949073
889.073319	0.952169
889.382376	0.952332
889.691392	0.951794
890.000366	0.952335
890.309300	0.953640
890.618193	0.951351
890.927044	0.950888
891.235855	0.950087
891.544625	0.950445
891.853353	0.950969
892.162041	0.948544
892.470687	0.942263
892.779293	0.936970
893.087858	0.933422
893.396381	0.924857
893.704864	0.910513
894.013306	0.885962
894.321707	0.859500
894.630068	0.845111
894.938387	0.839676
895.246665	0.841043
895.554903	0.853271
895.863100	0.866905
896.171256	0.883555
896.479371	0.903224
896.787446	0.916956
897.095480	0.922994
897.403473	0.926001
897.711425	0.930514
898.019336	0.938923
898.327207	0.940491
898.635038	0.944900
898.942827	0.943136
899.250576	0.947085
899.558284	0.951433
899.865952	0.952603
900.173579	0.954958
900.481165	0.955192
900.788711	0.958737
901.096216	0.960240
901.403681	0.960551
901.711105	0.962557
902.018489	0.962838
902.325832	0.962600
902.633135	0.960931
902.940397	0.953515
903.247619	0.941743
903.554800	0.916198
903.861941	0.876343
904.169041	0.838984
904.476101	0.821271
904.783121	0.820913
905.090100	0.838556
905.397039	0.861213
905.703938	0.882998
906.010796	0.903808
906.317614	0.921434
906.624391	0.932489
906.931129	0.942510
907.237826	0.950808
907.544483	0.957686
907.851099	0.961694
908.157675	0.966041
908.464211	0.969080
908.770707	0.971914
909.077163	0.972956
909.383578	0.973835
909.689954	0.975703
909.996289	0.975985
910.302584	0.976962
910.608839	0.980070
910.915054	0.977745
911.221229	0.978576
911.527363	0.975905
911.833458	0.975657
912.139513	0.975817
912.445527	0.974044
912.751502	0.973263
913.057436	0.972851
913.363331	0.970088
913.669186	0.964863
913.975000	0.960223
914.280775	0.953911
914.586510	0.946291
914.892205	0.932490
915.197859	0.910447
915.503475	0.883135
915.809050	0.862809
916.114585	0.855871
916.420081	0.854847
916.725536	0.850854
917.030952	0.859623
917.336328	0.872587
917.641665	0.888409
917.946961	0.904074
918.252218	0.916485
918.557435	0.925319
918.862612	0.934065
919.167750	0.941292
919.472848	0.944997
919.777906	0.950398
920.082925	0.956578
920.387904	0.960646
920.692843	0.961581
920.997743	0.963056
921.302603	0.965559
921.607423	0.968298
921.912204	0.970813
922.216946	0.971493
922.521647	0.973038
922.826310	0.974322
923.130932	0.976394
923.435516	0.976995
923.740059	0.980177
924.044564	0.977500
924.349028	0.979911
924.653454	0.982539
924.957840	0.983934
925.262186	0.983567
925.566493	0.982597
925.870761	0.984133
926.174989	0.986062
926.479178	0.987749
926.783328	0.988190
927.087438	0.988066
927.391509	0.987598
927.695541	0.989634
927.999533	0.988364
928.303486	0.989808
928.607400	0.990560
928.911275	0.988736
929.215110	0.990985
929.518906	0.990507
929.822663	0.990416
930.126381	0.990164
930.430060	0.989714
930.733699	0.991081
931.037299	0.989114
931.340861	0.990836
931.644383	0.989728
931.947866	0.989273
932.251309	0.990110
932.554714	0.990851
932.858080	0.989324
933.161407	0.990532
933.464694	0.991210
933.767943	0.988819
934.071153	0.991342
934.374323	0.991428
934.677455	0.990276
934.980548	0.990639
935.283602	0.989922
935.586617	0.991988
935.889593	0.990100
936.192530	0.990482
936.495428	0.991515
936.798287	0.990313
937.101108	0.989279
937.403890	0.989291
937.706632	0.987530
938.009336	0.986917
938.312002	0.986044
938.614628	0.984545
938.917216	0.983631
939.219765	0.981997
939.522275	0.982275
939.824747	0.982726
940.127179	0.981191
940.429573	0.984070
940.731929	0.983704
941.034246	0.984240
941.336524	0.985319
941.638763	0.985129
941.940964	0.985097
942.243126	0.986045
942.545250	0.987591
942.847335	0.987700
943.149381	0.987348
943.451389	0.986854
943.753359	0.987591
944.055290	0.990979
944.357182	0.988384
944.659036	0.987847
944.960851	0.988900
945.262628	0.989541
945.564367	0.990537
945.866067	0.989357
946.167729	0.990325
946.469352	0.990257
946.770937	0.987957
947.072484	0.990665
947.373992	0.988301
947.675462	0.990799
947.976893	0.990735
948.278286	0.989382
948.579641	0.991788
948.880958	0.990871
949.182236	0.990432
949.483476	0.991456
949.784678	0.989808
950.085841	0.990665
950.386967	0.990850
950.688054	0.990099
950.989103	0.990640
951.290114	0.988889
951.591087	0.989598
951.892021	0.989415
952.192917	0.988627
952.493776	0.988889
952.794596	0.986549
953.095378	0.988113
953.396122	0.987621
953.696828	0.987165
953.997496	0.989404
954.298126	0.990810
954.598718	0.989766
954.899272	0.991731
955.199788	0.990002
955.500266	0.992047
955.800706	0.992410
956.101108	0.992648
956.401472	0.993727
956.701798	0.994333
957.002087	0.994266
957.302337	0.993727
957.602550	0.994295
957.902724	0.994818
958.202861	0.994375
958.502960	0.994317
958.803022	0.994754
959.103045	0.995608
959.403031	0.996016
959.702979	0.995057
960.002889	0.996526
960.302762	0.994989
960.602596	0.995717
960.902393	0.994863
961.202153	0.995809
961.501875	0.997094
961.801559	0.995369
962.101205	0.995746
962.400814	0.995469
962.700385	0.997617
962.999918	0.998009
963.299414	0.996155
963.598873	0.996007
963.898293	0.996346
964.197677	0.996436
964.497022	0.997194
964.796331	0.997064
965.095601	0.996576
965.394835	0.996615
965.694030	0.996207
965.993189	0.997168
966.292309	0.996503
966.591393	0.996413
966.890439	0.996831
967.189447	0.995654
967.488419	0.996991
967.787353	0.995948
968.086249	0.997018
968.385108	0.996934
968.683930	0.996851
968.982714	0.997176
969.281462	0.997559
969.580172	0.996769
969.878844	0.998099
970.177480	0.996763
970.476078	0.996849
970.774639	0.996751
971.073162	0.996249
971.371649	0.996328
971.670098	0.995377
971.968510	0.996907
972.266885	0.995031
972.565223	0.996353
972.863524	0.996192
973.161788	0.997665
973.460014	0.997815
973.758204	0.994310
974.056356	0.996547
974.354471	0.994287
974.652550	0.996341
974.950591	0.996378
975.248595	0.996508
975.546563	0.996092
975.844493	0.997926
976.142386	0.997474
976.440243	0.997746
976.738062	0.996319
977.035845	0.997634
977.333590	0.996611
977.631299	0.997646
977.928971	0.996557
978.226606	0.996863
978.524204	0.996187
978.821765	0.997209
979.119290	0.997807
979.416777	0.996032
979.714228	0.996967
980.011642	0.997351
980.309020	0.997644
980.606360	0.997786
980.903664	0.998992
981.200931	0.995858
981.498162	0.995133
981.795356	0.994449
982.092513	0.993008
982.389633	0.994852
982.686717	0.991244
982.983764	0.990571
983.280775	0.990125
983.577749	0.989347
983.874686	0.991227
984.171587	0.990212
984.468451	0.994497
984.765279	0.994880
985.062070	0.993824
985.358824	0.994114
985.655543	0.994692
985.952224	0.996021
986.248869	0.996376
986.545478	0.996906
986.842050	0.998846
987.138586	0.996358
987.435086	0.997733
987.731549	0.998859
988.027975	0.997274
988.324366	0.997593
988.620719	0.997535
988.917037	0.996807
989.213318	0.999065
989.509563	0.998705
989.805772	0.998037
990.101944	0.997807
990.398080	0.997485
990.694180	0.997233
990.990244	0.998256
991.286271	0.998260
991.582262	0.998189
991.878217	0.997740
992.174136	0.998282
992.470019	0.998693
992.765865	0.997462
993.061676	0.997579
993.357450	0.997428
993.653188	0.997771
993.948890	0.996814
994.244556	0.998466
994.540186	0.997617
994.835780	0.997449
995.131337	0.998153
995.426859	0.997086
995.722345	0.996933
996.017795	0.997215
996.313208	0.995336
996.608586	0.996616
996.903928	0.995799
997.199234	0.996041
997.494504	0.996623
997.789738	0.995537
998.084936	0.995937
998.380099	0.998621
998.675225	0.997915
998.970316	0.998161
999.265371	0.999419
999.560390	0.997560
999.855373	0.999267
1000.150320	0.998441
1000.445232	0.998515
1000.740108	0.998019
1001.034948	0.998449
1001.329752	0.997661
1001.624521	0.997885
1001.919254	0.998321
1002.213951	0.997995
1002.508613	0.997378
1002.803239	0.999192
1003.097829	0.999218
1003.392384	0.998879
1003.686903	0.998907
1003.981386	0.998532
1004.275834	0.999167
1004.570246	0.997130
1004.864623	0.999002
1005.158964	0.999646
1005.453270	0.997647
1005.747540	0.997504
1006.041775	0.999338
1006.335974	0.999716
1006.630138	0.998577
1006.924266	0.998490
1007.218359	0.999857
1007.512416	0.999024
1007.806438	0.998707
1008.100425	0.999292
1008.394376	0.998068
1008.688292	0.997865
1008.982172	1.001522
1009.276017	0.999433
1009.569827	0.998415
1009.863602	0.998722
1010.157341	0.999626
1010.451045	1.000053
1010.744714	0.999303
1011.038347	1.000312
1011.331945	0.998412
1011.625508	0.997697
1011.919036	0.998153
1012.212528	0.999066
1012.505986	0.997206
1012.799408	0.999392
1013.092795	0.998902
1013.386147	0.999380
1013.679464	0.999170
1013.972745	0.997761
1014.265992	0.997598
1014.559204	0.999407
1014.852380	0.999628
1015.145521	0.998766
1015.438628	0.998917
1015.731699	0.998972
1016.024736	0.998478
1016.317737	0.999477
1016.610703	0.999601
1016.903635	0.998807
1017.196531	0.998954
1017.489393	0.999177
1017.782219	0.998668
1018.075011	0.999201
1018.367768	0.998861
1018.660490	0.998961
1018.953177	0.998961
1019.245829	0.998961
