Dividing Wavelength (nm)	Counts (n)	Blue Motor Position (mm): 0.000000	Red Motor Position (mm): 35.300000	
326.493990	1.000718
326.888308	1.000718
327.282561	1.000718
327.676750	1.000795
328.070874	0.999074
328.464933	0.999511
328.858929	0.998987
329.252859	0.999886
329.646726	0.999283
330.040528	0.998908
330.434265	1.000050
330.827938	1.000535
331.221547	1.000124
331.615091	1.000273
332.008571	0.999460
332.401986	0.999807
332.795338	1.000110
333.188625	0.997432
333.581847	1.000619
333.975006	1.001059
334.368100	0.999469
334.761129	0.999650
335.154095	1.001917
335.546996	0.998362
335.939833	0.994708
336.332606	0.995625
336.725315	0.998038
337.117960	0.997904
337.510540	0.996911
337.903056	0.996374
338.295508	0.995904
338.687896	0.995862
339.080220	0.997293
339.472480	0.995958
339.864676	0.997086
340.256807	0.995767
340.648875	0.997257
341.040879	0.996558
341.432818	0.996863
341.824694	0.996248
342.216506	0.997677
342.608253	0.997183
342.999937	0.995907
343.391557	0.996389
343.783113	0.996618
344.174605	0.996642
344.566033	0.996956
344.957397	0.995767
345.348697	0.996828
345.739934	0.996305
346.131106	0.997360
346.522215	0.996104
346.913260	0.997511
347.304241	0.997562
347.695159	0.996113
348.086012	0.996091
348.476802	0.997471
348.867528	0.996451
349.258191	0.994944
349.648789	0.996564
350.039324	0.996420
350.429796	0.997210
350.820203	0.996652
351.210548	0.997439
351.600828	0.997029
351.991045	0.996362
352.381198	0.995479
352.771288	0.995911
353.161314	0.995292
353.551276	0.997951
353.941175	0.996969
354.331010	0.997034
354.720782	0.996163
355.110490	0.995982
355.500135	0.995874
355.889717	0.996156
356.279235	0.997354
356.668689	0.995528
357.058080	0.996799
357.447408	0.997817
357.836672	0.997259
358.225873	0.997726
358.615010	0.997038
359.004084	0.996601
359.393095	0.997098
359.782043	0.996030
360.170927	0.998682
360.559748	0.997128
360.948505	0.997191
361.337199	0.997092
361.725830	0.996918
362.114398	0.996929
362.502903	0.998258
362.891344	0.998512
363.279722	0.996525
363.668037	0.997178
364.056289	0.995423
364.444478	0.998214
364.832603	0.996190
365.220665	0.996000
365.608665	0.996241
365.996601	0.996815
366.384474	0.996527
366.772284	0.997142
367.160031	0.995882
367.547715	0.996433
367.935336	0.995470
368.322893	0.997384
368.710388	0.995770
369.097820	0.996350
369.485189	0.995919
369.872495	0.995687
370.259738	0.995114
370.646918	0.997223
371.034035	0.996413
371.421090	0.996784
371.808081	0.995927
372.195010	0.996974
372.581875	0.997184
372.968678	0.996113
373.355418	0.997309
373.742096	0.996096
374.128710	0.997712
374.515262	0.997094
374.901751	0.997596
375.288177	0.998010
375.674540	0.999006
376.060841	0.997314
376.447079	0.997112
376.833254	0.996669
377.219367	0.998451
377.605417	0.998129
377.991404	0.996622
378.377329	0.996597
378.763191	0.997064
379.148991	0.997931
379.534727	0.998179
379.920402	0.997585
380.306013	0.996977
380.691563	0.999079
381.077049	0.996643
381.462474	0.998871
381.847835	0.997867
382.233134	0.998002
382.618371	0.997757
383.003545	0.998075
383.388657	0.998173
383.773706	0.999390
384.158693	0.998595
384.543618	0.997844
384.928480	0.998148
385.313280	0.997222
385.698017	0.999073
386.082692	0.998177
386.467305	0.998112
386.851856	0.998024
387.236344	0.998711
387.620770	0.997831
388.005133	0.997606
388.389435	0.998988
388.773674	0.997919
389.157851	0.998839
389.541965	0.998550
389.926018	0.998218
390.310008	0.999488
390.693936	0.998576
391.077802	0.999293
391.461606	0.997942
391.845348	0.999051
392.229027	0.999921
392.612645	0.999355
392.996200	1.000226
393.379694	0.998666
393.763125	0.999989
394.146494	0.998690
394.529801	0.998160
394.913047	0.999306
395.296230	0.999833
395.679351	0.999248
396.062410	0.998338
396.445408	0.999376
396.828343	0.999937
397.211217	0.999318
397.594028	0.999560
397.976778	0.997776
398.359466	0.999171
398.742092	0.998947
399.124656	0.998625
399.507158	0.999045
399.889598	0.998880
400.271977	0.999840
400.654294	0.999693
401.036549	1.000165
401.418742	0.999599
401.800874	0.998987
402.182944	0.998949
402.564952	0.998542
402.946898	1.000366
403.328783	0.999643
403.710606	0.999222
404.092367	0.999806
404.474067	0.999112
404.855705	0.998408
405.237282	0.998747
405.618797	0.999301
406.000250	0.999142
406.381642	0.999648
406.762972	0.998756
407.144240	1.000140
407.525447	0.999825
407.906593	0.999575
408.287677	0.999880
408.668700	1.000467
409.049661	0.998494
409.430560	0.999477
409.811399	0.999036
410.192176	0.999271
410.572891	0.999254
410.953545	0.999113
411.334138	0.998110
411.714669	1.000240
412.095139	0.998826
412.475547	1.000595
412.855894	0.999271
413.236180	1.000126
413.616405	0.999587
413.996568	0.999621
414.376670	1.000041
414.756711	0.999329
415.136691	0.999051
415.516609	1.000159
415.896466	0.999719
416.276262	0.998371
416.655997	0.999895
417.035670	0.999099
417.415283	0.999927
417.794834	0.999412
418.174324	1.000056
418.553753	1.000710
418.933121	1.000115
419.312428	0.999680
419.691674	0.999350
420.070859	1.000047
420.449983	1.000035
420.829045	0.999100
421.208047	1.000236
421.586988	1.000716
421.965867	0.999380
422.344686	1.000207
422.723444	0.999685
423.102141	1.000112
423.480777	0.999820
423.859352	1.000204
424.237866	0.999902
424.616319	1.000235
424.994712	1.000676
425.373044	1.000867
425.751314	0.999909
426.129524	1.000010
426.507673	1.000611
426.885762	1.001040
427.263789	1.000279
427.641756	1.000250
428.019662	1.000556
428.397508	0.999968
428.775292	0.998640
429.153016	1.000386
429.530679	1.000501
429.908282	1.000159
430.285824	0.999437
430.663305	0.999704
431.040726	1.000180
431.418086	1.001127
431.795385	1.000280
432.172624	0.999510
432.549802	1.000720
432.926920	1.000954
433.303977	0.999297
433.680974	1.000840
434.057910	0.999515
434.434786	0.999789
434.811601	0.999259
435.188355	0.998951
435.565050	0.999035
435.941683	1.000804
436.318257	1.000770
436.694770	0.999580
437.071222	1.000521
437.447614	1.000584
437.823946	1.000202
438.200218	1.000578
438.576429	0.999836
438.952580	1.000778
439.328670	1.000207
439.704700	1.001245
440.080670	1.001253
440.456580	1.000450
440.832429	0.999606
441.208218	1.000197
441.583947	1.000195
441.959616	1.000208
442.335224	0.999710
442.710773	1.000895
443.086261	0.999949
443.461689	0.999913
443.837057	1.000372
444.212365	1.000057
444.587612	1.000500
444.962800	0.999930
445.337927	0.999796
445.712995	1.000272
446.088002	1.000723
446.462949	1.000531
446.837837	1.000954
447.212664	1.000938
447.587431	1.000385
447.962139	1.000286
448.336786	1.000153
448.711374	1.000679
449.085901	0.999713
449.460369	1.000611
449.834776	0.999398
450.209124	1.001142
450.583412	1.000497
450.957640	0.999878
451.331808	1.000523
451.705917	1.000303
452.079965	0.999924
452.453954	1.000798
452.827883	0.999953
453.201752	1.000319
453.575562	1.000876
453.949311	1.000273
454.323001	1.000062
454.696632	1.000345
455.070202	1.000030
455.443713	0.999908
455.817164	1.000209
456.190556	1.000842
456.563888	0.999616
456.937160	1.001375
457.310373	1.000338
457.683526	0.999714
458.056619	1.000052
458.429653	1.000116
458.802628	0.999909
459.175542	1.000377
459.548398	0.999823
459.921194	0.999987
460.293930	0.999638
460.666607	0.999747
461.039224	0.999624
461.411782	1.000733
461.784280	1.000194
462.156719	1.000830
462.529099	1.001011
462.901419	1.001238
463.273680	1.000650
463.645882	1.000295
464.018024	1.000394
464.390106	1.000683
464.762130	1.001253
465.134094	1.000386
465.505999	1.000895
465.877845	1.000261
466.249631	1.001698
466.621358	1.000850
466.993026	1.001397
467.364634	1.000253
467.736184	1.000909
468.107674	1.000702
468.479105	1.000483
468.850477	1.001513
469.221790	1.000986
469.593043	1.001240
469.964238	1.001474
470.335373	1.001068
470.706449	1.000807
471.077467	1.000571
471.448425	1.001154
471.819324	1.001819
472.190164	1.000173
472.560945	1.000328
472.931667	1.000660
473.302330	1.000662
473.672934	1.001025
474.043479	1.000678
474.413965	1.000871
474.784393	1.000526
475.154761	1.000863
475.525070	0.999871
475.895321	1.000577
476.265513	1.001027
476.635645	1.000426
477.005719	1.001199
477.375734	1.000812
477.745691	1.000598
478.115588	1.000669
478.485427	1.000974
478.855207	1.000476
479.224928	1.000975
479.594591	1.000592
479.964194	1.000763
480.333739	1.001166
480.703226	1.000449
481.072653	1.001862
481.442022	1.001807
481.811333	0.999999
482.180584	1.001382
482.549777	1.000584
482.918912	1.001427
483.287988	1.000920
483.657005	1.000655
484.025964	1.001153
484.394864	1.001508
484.763706	1.001065
485.132489	1.001089
485.501213	1.000515
485.869879	1.001165
486.238487	1.001037
486.607036	1.001481
486.975527	1.000792
487.343959	1.000601
487.712333	1.000311
488.080648	1.001000
488.448905	1.000304
488.817104	1.000503
489.185244	1.001244
489.553326	1.001264
489.921350	0.999950
490.289315	1.000346
490.657222	1.000706
491.025070	1.000370
491.392861	1.000751
491.760593	1.001098
492.128267	1.000692
492.495883	1.000182
492.863440	1.000554
493.230939	1.001059
493.598380	1.000943
493.965763	1.000760
494.333088	1.000092
494.700354	1.000329
495.067563	1.000655
495.434713	1.000135
495.801805	1.000874
496.168839	1.000622
496.535815	1.000324
496.902733	0.999853
497.269593	0.999786
497.636395	0.999961
498.003139	1.000502
498.369825	1.000925
498.736453	0.999977
499.103023	0.999558
499.469535	0.999848
499.835989	0.999577
500.202385	1.000101
500.568723	1.000018
500.935003	0.999679
501.301226	1.000254
501.667390	0.999100
502.033497	0.999668
502.399546	0.999981
502.765537	0.999107
503.131470	0.999418
503.497345	0.998742
503.863163	1.000276
504.228923	0.999601
504.594625	0.999310
504.960269	0.998412
505.325856	0.998625
505.691385	0.998357
506.056856	0.998358
506.422270	0.997806
506.787625	0.998501
507.152924	0.997446
507.518164	0.996970
507.883347	0.997473
508.248472	0.996912
508.613540	0.996701
508.978550	0.997136
509.343503	0.995878
509.708398	0.995406
510.073236	0.995591
510.438016	0.995389
510.802738	0.994632
511.167403	0.994402
511.532010	0.993691
511.896561	0.993645
512.261053	0.994189
512.625488	0.991987
512.989866	0.991787
513.354186	0.990897
513.718449	0.990178
514.082655	0.989681
514.446803	0.989648
514.810894	0.988431
515.174927	0.988178
515.538904	0.986874
515.902822	0.986016
516.266684	0.986310
516.630488	0.985111
516.994235	0.983369
517.357925	0.983096
517.721558	0.982189
518.085133	0.980775
518.448651	0.980981
518.812112	0.980100
519.175516	0.978044
519.538863	0.976796
519.902152	0.975817
520.265385	0.974353
520.628560	0.973451
520.991678	0.972161
521.354739	0.971559
521.717743	0.970492
522.080690	0.969125
522.443580	0.967072
522.806413	0.965041
523.169189	0.962855
523.531908	0.961700
523.894569	0.960742
524.257174	0.959912
524.619722	0.957479
524.982213	0.955991
525.344647	0.953359
525.707025	0.950978
526.069345	0.949186
526.431608	0.947969
526.793815	0.945855
527.155964	0.943371
527.518057	0.942165
527.880093	0.939607
528.242072	0.937342
528.603995	0.934758
528.965860	0.933677
529.327669	0.929943
529.689421	0.928046
530.051117	0.926336
530.412755	0.921971
530.774337	0.920635
531.135862	0.917674
531.497331	0.915341
531.858743	0.912088
532.220098	0.909361
532.581396	0.906391
532.942638	0.904180
533.303824	0.900518
533.664953	0.897191
534.026025	0.894488
534.387040	0.890254
534.747999	0.888196
535.108902	0.884246
535.469748	0.881354
535.830537	0.877855
536.191270	0.874347
536.551947	0.870487
536.912567	0.867302
537.273131	0.864384
537.633638	0.860264
537.994089	0.856090
538.354483	0.852792
538.714821	0.849111
539.075103	0.844863
539.435328	0.842023
539.795497	0.838492
540.155609	0.833781
540.515665	0.830018
540.875665	0.827099
541.235609	0.822088
541.595496	0.818151
541.955328	0.812453
542.315102	0.810610
542.674821	0.805898
543.034483	0.802306
543.394090	0.797616
543.753640	0.794489
544.113134	0.787730
544.472571	0.785125
544.831953	0.779466
545.191278	0.776264
545.550548	0.772693
545.909761	0.766814
546.268918	0.762233
546.628019	0.757755
546.987064	0.753409
547.346053	0.750736
547.704986	0.745044
548.063863	0.741023
548.422684	0.737139
548.781449	0.732581
549.140158	0.726639
549.498811	0.723162
549.857408	0.720171
550.215949	0.712820
550.574434	0.709589
550.932864	0.702924
551.291237	0.699596
551.649555	0.693443
552.007817	0.689320
552.366022	0.685571
552.724173	0.680123
553.082267	0.676696
553.440305	0.668944
553.798288	0.667921
554.156215	0.660307
554.514086	0.656054
554.871902	0.653626
555.229661	0.647806
555.587365	0.644440
555.945014	0.641924
556.302606	0.633556
556.660143	0.631740
557.017625	0.624333
557.375050	0.620965
557.732421	0.615058
558.089735	0.610783
558.446994	0.606614
558.804197	0.602239
559.161345	0.597176
559.518437	0.595992
559.875474	0.588507
560.232455	0.584057
560.589381	0.581246
560.946251	0.574745
561.303065	0.570961
561.659825	0.566272
562.016528	0.562576
562.373177	0.561438
562.729770	0.553677
563.086307	0.551545
563.442789	0.546288
563.799216	0.542158
564.155587	0.537561
564.511904	0.533251
564.868164	0.530060
565.224370	0.525718
565.580520	0.521285
565.936615	0.518804
566.292654	0.515557
566.648638	0.510062
567.004567	0.506025
567.360441	0.502611
567.716260	0.499369
568.072023	0.494500
568.427732	0.490195
568.783385	0.489358
569.138982	0.482793
569.494525	0.478873
569.850013	0.477089
570.205445	0.471231
570.560823	0.470800
570.916145	0.467780
571.271412	0.462913
571.626625	0.460434
571.981782	0.457355
572.336884	0.453775
572.691931	0.451169
573.046923	0.447177
573.401860	0.445222
573.756743	0.442952
574.111570	0.438718
574.466342	0.436086
574.821059	0.432070
575.175722	0.431396
575.530330	0.427360
575.884882	0.424664
576.239380	0.423100
576.593823	0.419754
576.948211	0.416680
577.302544	0.416760
577.656823	0.412346
578.011047	0.410188
578.365216	0.407655
578.719330	0.406742
579.073389	0.403685
579.427394	0.402359
579.781344	0.400551
580.135239	0.398886
580.489080	0.396500
580.842866	0.396029
581.196597	0.393191
581.550273	0.390188
581.903895	0.388230
582.257463	0.385084
582.610975	0.384709
582.964434	0.382403
583.317837	0.381883
583.671186	0.380572
584.024481	0.378216
584.377721	0.378306
584.730906	0.376824
585.084037	0.373493
585.437113	0.373522
585.790135	0.370603
586.143103	0.370955
586.496016	0.370270
586.848874	0.366145
587.201679	0.365218
587.554428	0.366307
587.907124	0.362618
588.259765	0.362466
588.612352	0.360969
588.964884	0.363357
589.317362	0.361014
589.669786	0.359168
590.022155	0.356379
590.374470	0.353883
590.726731	0.354548
591.078937	0.356889
591.431090	0.351652
591.783188	0.354353
592.135232	0.352760
592.487222	0.352065
592.839157	0.348883
593.191038	0.350001
593.542866	0.350155
593.894639	0.352046
594.246358	0.348929
594.598022	0.347397
594.949633	0.349549
595.301190	0.349096
595.652692	0.347258
596.004141	0.342337
596.355535	0.348627
596.706876	0.347944
597.058162	0.349009
597.409395	0.345712
597.760573	0.342504
598.111698	0.344696
598.462768	0.344208
598.813785	0.344672
599.164748	0.344740
599.515657	0.344230
599.866511	0.346425
600.217312	0.341298
600.568060	0.345564
600.918753	0.340970
601.269392	0.341705
601.619978	0.343787
601.970510	0.340437
602.320988	0.340207
602.671412	0.337229
603.021783	0.339423
603.372100	0.339962
603.722363	0.338890
604.072572	0.339318
604.422728	0.338553
604.772830	0.339965
605.122878	0.338894
605.472872	0.338648
605.822813	0.336839
606.172701	0.339050
606.522534	0.335871
606.872314	0.335515
607.222041	0.335955
607.571714	0.333744
607.921333	0.334420
608.270899	0.334121
608.620411	0.330359
608.969870	0.333866
609.319276	0.333107
609.668627	0.332942
610.017926	0.331183
610.367171	0.329168
610.716362	0.329786
611.065500	0.329645
611.414585	0.328106
611.763616	0.328631
612.112594	0.328793
612.461518	0.327933
612.810389	0.325206
613.159207	0.327517
613.507971	0.329077
613.856682	0.324313
614.205340	0.326008
614.553945	0.322519
614.902496	0.325904
615.250994	0.323871
615.599439	0.324494
615.947830	0.323567
616.296169	0.324371
616.644454	0.323399
616.992686	0.323847
617.340864	0.320955
617.688990	0.325164
618.037063	0.321263
618.385082	0.322975
618.733048	0.319765
619.080961	0.321928
619.428821	0.321430
619.776628	0.320793
620.124382	0.322762
620.472083	0.322700
620.819731	0.322101
621.167326	0.325733
621.514868	0.324940
621.862357	0.329444
622.209793	0.328912
622.557176	0.330878
622.904506	0.331732
623.251783	0.333892
623.599007	0.336330
623.946179	0.335919
624.293297	0.337406
624.640363	0.341030
624.987376	0.341697
625.334336	0.344636
625.681243	0.346364
626.028097	0.346990
626.374899	0.347749
626.721647	0.347655
627.068343	0.351337
627.414987	0.352040
627.761577	0.354263
628.108115	0.352480
628.454600	0.357163
628.801032	0.354709
629.147412	0.356705
629.493739	0.357003
629.840014	0.360079
630.186236	0.357340
630.532405	0.363115
630.878521	0.360333
631.224585	0.362282
631.570597	0.366046
631.916556	0.364326
632.262462	0.365071
632.608316	0.366968
632.954117	0.367582
633.299866	0.368487
633.645562	0.368665
633.991206	0.373118
634.336797	0.375748
634.682336	0.377841
635.027823	0.379615
635.373257	0.380096
635.718639	0.383465
636.063968	0.382434
636.409245	0.388744
636.754470	0.388693
637.099642	0.391374
637.444762	0.394712
637.789829	0.393154
638.134845	0.397297
638.479808	0.397573
638.824719	0.397975
639.169577	0.401544
639.514383	0.400437
639.859137	0.404559
640.203839	0.404582
640.548489	0.405397
640.893086	0.406683
641.237632	0.408083
641.582125	0.406225
641.926566	0.407811
642.270955	0.408231
642.615292	0.408340
642.959576	0.407346
643.303809	0.407716
643.647990	0.407854
643.992118	0.407955
644.336195	0.411657
644.680219	0.409843
645.024192	0.410795
645.368112	0.404430
645.711981	0.403508
646.055797	0.398318
646.399562	0.401201
646.743274	0.393140
647.086935	0.390220
647.430544	0.390591
647.774101	0.389314
648.117606	0.389205
648.461059	0.389612
648.804460	0.391952
649.147810	0.396922
649.491108	0.399081
649.834354	0.400612
650.177548	0.405734
650.520690	0.410974
650.863781	0.412321
651.206820	0.411567
651.549807	0.416178
651.892742	0.419611
652.235626	0.419162
652.578458	0.420225
652.921238	0.426494
653.263967	0.424353
653.606644	0.428545
653.949269	0.428056
654.291843	0.431782
654.634365	0.428497
654.976836	0.431666
655.319255	0.432218
655.661622	0.433532
656.003938	0.433322
656.346203	0.436571
656.688416	0.434369
657.030577	0.437878
657.372687	0.440275
657.714746	0.440627
658.056753	0.437172
658.398708	0.441143
658.740612	0.442746
659.082465	0.438632
659.424266	0.439451
659.766016	0.438919
660.107715	0.441229
660.449362	0.440221
660.790958	0.440451
661.132503	0.441547
661.473996	0.439364
661.815438	0.440442
662.156829	0.440390
662.498168	0.440884
662.839456	0.441824
663.180693	0.439948
663.521879	0.439841
663.863013	0.440649
664.204097	0.439540
664.545129	0.436421
664.886110	0.436970
665.227040	0.433937
665.567918	0.436340
665.908746	0.434170
666.249522	0.434059
666.590248	0.434654
666.930922	0.433623
667.271545	0.432473
667.612118	0.432325
667.952639	0.433630
668.293109	0.432694
668.633528	0.435523
668.973896	0.435405
669.314213	0.435926
669.654480	0.437815
669.994695	0.437617
670.334859	0.438397
670.674973	0.438833
671.015035	0.439197
671.355047	0.438325
671.695008	0.439507
672.034918	0.441758
672.374777	0.440982
672.714585	0.441798
673.054342	0.442283
673.394049	0.442304
673.733705	0.440057
674.073310	0.441162
674.412864	0.444177
674.752368	0.444603
675.091820	0.444951
675.431223	0.449113
675.770574	0.449156
676.109875	0.451877
676.449125	0.452255
676.788324	0.454242
677.127473	0.460050
677.466571	0.459478
677.805619	0.461284
678.144616	0.462349
678.483562	0.464072
678.822458	0.466198
679.161303	0.467640
679.500098	0.467594
679.838842	0.469360
680.177535	0.469135
680.516179	0.467937
680.854771	0.466956
681.193314	0.460177
681.531805	0.451233
681.870247	0.439888
682.208638	0.432277
682.546978	0.431295
682.885268	0.432992
683.223508	0.439639
683.561697	0.443088
683.899836	0.445593
684.237925	0.449496
684.575963	0.451895
684.913951	0.455164
685.251889	0.450342
685.589776	0.452500
685.927614	0.454617
686.265401	0.449039
686.603137	0.450497
686.940824	0.444703
687.278460	0.443056
687.616046	0.442492
687.953582	0.436680
688.291068	0.438292
688.628504	0.434449
688.965889	0.436518
689.303224	0.440459
689.640510	0.444181
689.977745	0.450329
690.314930	0.458414
690.652065	0.462431
690.989150	0.470531
691.326185	0.476416
691.663170	0.480760
692.000105	0.488163
692.336990	0.495149
692.673825	0.498038
693.010610	0.504193
693.347345	0.510034
693.684030	0.511962
694.020665	0.516704
694.357251	0.525208
694.693786	0.524462
695.030272	0.529149
695.366707	0.532108
695.703093	0.535428
696.039429	0.533247
696.375716	0.535381
696.711952	0.537350
697.048139	0.539532
697.384276	0.541756
697.720363	0.540118
698.056400	0.539352
698.392388	0.545032
698.728326	0.547788
699.064214	0.550591
699.400053	0.551428
699.735842	0.555122
700.071581	0.557873
700.407270	0.559935
700.742910	0.562999
701.078501	0.569525
701.414042	0.569739
701.749533	0.572159
702.084974	0.581681
702.420366	0.573947
702.755709	0.581556
703.091002	0.589475
703.426246	0.582378
703.761440	0.588720
704.096584	0.593861
704.431679	0.590439
704.766725	0.592397
705.101721	0.594710
705.436668	0.590047
705.771565	0.597153
706.106413	0.593734
706.441212	0.589426
706.775961	0.588166
707.110661	0.590378
707.445311	0.587127
707.779913	0.584379
708.114465	0.582759
708.448967	0.579300
708.783421	0.571697
709.117825	0.565621
709.452180	0.566956
709.786485	0.559858
710.120742	0.550247
710.454949	0.552234
710.789107	0.544400
711.123216	0.535491
711.457275	0.537120
711.791286	0.527918
712.125247	0.527296
712.459159	0.537530
712.793023	0.530558
713.126837	0.534388
713.460602	0.534927
713.794318	0.543932
714.127985	0.542944
714.461602	0.553168
714.795171	0.556355
715.128691	0.564228
715.462162	0.571122
715.795584	0.576686
716.128957	0.579514
716.462281	0.586635
716.795556	0.589319
717.128782	0.594514
717.461960	0.603968
717.795088	0.602922
718.128167	0.609011
718.461198	0.618066
718.794180	0.618090
719.127113	0.620731
719.459997	0.624248
719.792833	0.631140
720.125619	0.632382
720.458357	0.637710
720.791046	0.637559
721.123686	0.640186
721.456278	0.648191
721.788821	0.644622
722.121315	0.649153
722.453761	0.653741
722.786158	0.651454
723.118506	0.648286
723.450805	0.656849
723.783056	0.651606
724.115259	0.648889
724.447412	0.648380
724.779518	0.649653
725.111574	0.649021
725.443582	0.644441
725.775542	0.646615
726.107453	0.639020
726.439315	0.638436
726.771129	0.637608
727.102895	0.630430
727.434612	0.623296
727.766281	0.621447
728.097901	0.620720
728.429473	0.620638
728.760996	0.619061
729.092471	0.619196
729.423897	0.622574
729.755276	0.621794
730.086606	0.622216
730.417887	0.616779
730.749120	0.607551
731.080305	0.598162
731.411442	0.593919
731.742530	0.599459
732.073570	0.598480
732.404562	0.590981
732.735506	0.592045
733.066401	0.596636
733.397249	0.606096
733.728048	0.616696
734.058798	0.629699
734.389501	0.640272
734.720156	0.650256
735.050762	0.658872
735.381320	0.658868
735.711831	0.668790
736.042293	0.673054
736.372707	0.668509
736.703073	0.673311
737.033391	0.675971
737.363661	0.673045
737.693883	0.667418
738.024056	0.666934
738.354182	0.667579
738.684260	0.657015
739.014290	0.652966
739.344272	0.653457
739.674207	0.646819
740.004093	0.646492
740.333931	0.646502
740.663722	0.646953
740.993464	0.647153
741.323159	0.650376
741.652806	0.655302
741.982405	0.661359
742.311956	0.665278
742.641460	0.667066
742.970915	0.670900
743.300323	0.679122
743.629683	0.685188
743.958996	0.687234
744.288260	0.691331
744.617477	0.698071
744.946647	0.698896
745.275768	0.703440
745.604842	0.704237
745.933869	0.713790
746.262847	0.714570
746.591778	0.708371
746.920662	0.714314
747.249498	0.720842
747.578286	0.711091
747.907027	0.707414
748.235720	0.708799
748.564365	0.703673
748.892963	0.702942
749.221514	0.706469
749.550017	0.711731
749.878473	0.711008
750.206881	0.717888
750.535242	0.718996
750.863555	0.718520
751.191821	0.719882
751.520039	0.723241
751.848210	0.728426
752.176334	0.720390
752.504411	0.718904
752.832440	0.727420
753.160421	0.731180
753.488356	0.729834
753.816243	0.727745
754.144082	0.735730
754.471875	0.739431
754.799620	0.733946
755.127318	0.735217
755.454969	0.735251
755.782572	0.734256
756.110129	0.740420
756.437638	0.741300
756.765100	0.739582
757.092515	0.737575
757.419882	0.736110
757.747203	0.741182
758.074477	0.740558
758.401703	0.738497
758.728882	0.733533
759.056014	0.731525
759.383099	0.731206
759.710138	0.732202
760.037129	0.728071
760.364073	0.722732
760.690970	0.725069
761.017820	0.730050
761.344623	0.726563
761.671379	0.717406
761.998088	0.705218
762.324751	0.684194
762.651366	0.642188
762.977935	0.575541
763.304456	0.524376
763.630931	0.515145
763.957359	0.553366
764.283740	0.597831
764.610074	0.624004
764.936362	0.655148
765.262602	0.682151
765.588796	0.702902
765.914943	0.720335
766.241044	0.738124
766.567097	0.744386
766.893104	0.754382
767.219064	0.761054
767.544978	0.767545
767.870845	0.780760
768.196665	0.784605
768.522438	0.781589
768.848165	0.783643
769.173846	0.792154
769.499479	0.796790
769.825066	0.799734
770.150607	0.805495
770.476101	0.800669
770.801548	0.801745
771.126949	0.813156
771.452303	0.816916
771.777611	0.816639
772.102872	0.814969
772.428087	0.819981
772.753256	0.824318
773.078378	0.825394
773.403453	0.834454
773.728482	0.837816
774.053465	0.831922
774.378401	0.835610
774.703291	0.844974
775.028135	0.843646
775.352932	0.845149
775.677683	0.848647
776.002388	0.848417
776.327046	0.848018
776.651658	0.851929
776.976224	0.854832
777.300743	0.855189
777.625216	0.856898
777.949643	0.859183
778.274024	0.858835
778.598359	0.861201
778.922647	0.859424
779.246889	0.859822
779.571086	0.864611
779.895236	0.866694
780.219339	0.862367
780.543397	0.860549
780.867409	0.858257
781.191374	0.862189
781.515294	0.861375
781.839167	0.861710
782.162995	0.865109
782.486776	0.860619
782.810511	0.862587
783.134201	0.865339
783.457844	0.863267
783.781441	0.866225
784.104993	0.872812
784.428498	0.872960
784.751958	0.869400
785.075372	0.871733
785.398739	0.875063
785.722061	0.871798
786.045337	0.865882
786.368568	0.871435
786.691752	0.874715
787.014891	0.859302
787.337983	0.851157
787.661030	0.842997
787.984031	0.826696
788.306987	0.812731
788.629897	0.815593
788.952760	0.819559
789.275579	0.824004
789.598351	0.838735
789.921078	0.851218
790.243759	0.853763
790.566395	0.859282
790.888984	0.865964
791.211529	0.871043
791.534027	0.874006
791.856480	0.875900
792.178888	0.881973
792.501249	0.884571
792.823566	0.885112
793.145836	0.884421
793.468062	0.886351
793.790241	0.887571
794.112375	0.885069
794.434464	0.880961
794.756507	0.880191
795.078505	0.879706
795.400457	0.873541
795.722364	0.862259
796.044226	0.855515
796.366042	0.855146
796.687812	0.858275
797.009538	0.853871
797.331218	0.856744
797.652852	0.861398
797.974442	0.866771
798.295986	0.865749
798.617484	0.868537
798.938938	0.873080
799.260346	0.877775
799.581709	0.879713
799.903026	0.883434
800.224299	0.882030
800.545526	0.885540
800.866708	0.890511
801.187845	0.894158
801.508936	0.894356
801.829983	0.892274
802.150984	0.894082
802.471940	0.899355
802.792851	0.899182
803.113717	0.899822
803.434538	0.899230
803.755314	0.899942
804.076045	0.902085
804.396731	0.902420
804.717372	0.901979
805.037967	0.904114
805.358518	0.901701
805.679024	0.898614
805.999485	0.900358
806.319901	0.899790
806.640272	0.900251
806.960598	0.898947
807.280879	0.896142
807.601115	0.895155
807.921306	0.897528
808.241453	0.898967
808.561554	0.896306
808.881611	0.896823
809.201623	0.898093
809.521590	0.898989
809.841513	0.899308
810.161390	0.897947
810.481223	0.900027
810.801011	0.903627
811.120755	0.903986
811.440453	0.903745
811.760107	0.902142
812.079716	0.902629
812.399281	0.906111
812.718801	0.909210
813.038276	0.909708
813.357707	0.908295
813.677093	0.906379
813.996434	0.908402
814.315731	0.910226
814.634983	0.911268
814.954191	0.910189
815.273354	0.908442
815.592473	0.903274
815.911547	0.903939
816.230577	0.900171
816.549562	0.898545
816.868502	0.899401
817.187399	0.896294
817.506250	0.890094
817.825058	0.892444
818.143821	0.889110
818.462539	0.884120
818.781213	0.876755
819.099843	0.865189
819.418429	0.849542
819.736970	0.833277
820.055466	0.814223
820.373919	0.788893
820.692327	0.756463
821.010691	0.722758
821.329011	0.646729
821.647286	0.533583
821.965517	0.421510
822.283704	0.379448
822.601847	0.381190
822.919945	0.416448
823.237999	0.449492
823.556010	0.495346
823.873976	0.550355
824.191897	0.599100
824.509775	0.641074
824.827609	0.686378
825.145398	0.708029
825.463144	0.711047
825.780845	0.694126
826.098502	0.675062
826.416116	0.630289
826.733685	0.587671
827.051210	0.579833
827.368692	0.594323
827.686129	0.629710
828.003522	0.682938
828.320872	0.729121
828.638177	0.772317
828.955439	0.804511
829.272656	0.826441
829.589830	0.842539
829.906960	0.857487
830.224046	0.870227
830.541088	0.881032
830.858086	0.883817
831.175041	0.890736
831.491952	0.889327
831.808819	0.887023
832.125642	0.880157
832.442421	0.865357
832.759157	0.844153
833.075849	0.799335
833.392497	0.736223
833.709101	0.696053
834.025662	0.705546
834.342179	0.737338
834.658653	0.775182
834.975083	0.810511
835.291469	0.836175
835.607811	0.858408
835.924110	0.873573
836.240366	0.890288
836.556578	0.903825
836.872746	0.912193
837.188871	0.917700
837.504952	0.921672
837.820990	0.926243
838.136984	0.929413
838.452935	0.932109
838.768842	0.933273
839.084706	0.928006
839.400526	0.902862
839.716303	0.862554
840.032037	0.840985
840.347727	0.843916
840.663373	0.863055
840.978977	0.883408
841.294537	0.905306
841.610054	0.920446
841.925527	0.928464
842.240957	0.934704
842.556344	0.942620
842.871687	0.947689
843.186987	0.952207
843.502244	0.951229
843.817458	0.953227
844.132629	0.957199
844.447756	0.961413
844.762840	0.962326
845.077881	0.961454
845.392879	0.961455
845.707833	0.963672
846.022745	0.965901
846.337613	0.965907
846.652438	0.966614
846.967221	0.966833
847.281960	0.966705
847.596656	0.968313
847.911309	0.967649
848.225919	0.969085
848.540485	0.969112
848.855009	0.970730
849.169490	0.969847
849.483928	0.970827
849.798323	0.970575
850.112675	0.970605
850.426984	0.970704
850.741251	0.971889
851.055474	0.971438
851.369654	0.968954
851.683792	0.970089
851.997887	0.971850
852.311938	0.971487
852.625947	0.970168
852.939914	0.969780
853.253837	0.969761
853.567718	0.970982
853.881555	0.973446
854.195350	0.967785
854.509103	0.970776
854.822812	0.971064
855.136479	0.971412
855.450103	0.970568
855.763685	0.969903
856.077224	0.969981
856.390720	0.971651
856.704173	0.970446
857.017584	0.969898
857.330953	0.968814
857.644278	0.969191
857.957561	0.969866
858.270802	0.969486
858.584000	0.970518
858.897155	0.968459
859.210268	0.968648
859.523339	0.969465
859.836367	0.970306
860.149352	0.971445
860.462295	0.969807
860.775195	0.972195
861.088054	0.970818
861.400869	0.970932
861.713642	0.971638
862.026373	0.972069
862.339062	0.972446
862.651708	0.968994
862.964312	0.969950
863.276873	0.970936
863.589392	0.969851
863.901869	0.967436
864.214303	0.966738
864.526696	0.966357
864.839045	0.964373
865.151353	0.962897
865.463619	0.965334
865.775842	0.963770
866.088023	0.963463
866.400162	0.963817
866.712258	0.963499
867.024313	0.964665
867.336325	0.964668
867.648296	0.964811
867.960224	0.963488
868.272110	0.963840
868.583954	0.965344
868.895755	0.966189
869.207515	0.962765
869.519233	0.961915
869.830909	0.962767
870.142542	0.963928
870.454134	0.964065
870.765684	0.962975
871.077191	0.960377
871.388657	0.960313
871.700081	0.960330
872.011463	0.959626
872.322803	0.960527
872.634101	0.958548
872.945357	0.955688
873.256571	0.955746
873.567744	0.954291
873.878874	0.955265
874.189963	0.953012
874.501010	0.953197
874.812015	0.951733
875.122979	0.952418
875.433900	0.954911
875.744780	0.955748
876.055618	0.953134
876.366415	0.952331
876.677169	0.951815
876.987882	0.953732
877.298554	0.953450
877.609183	0.950446
877.919771	0.947139
878.230317	0.945193
878.540822	0.943631
878.851285	0.937523
879.161707	0.931314
879.472087	0.919878
879.782425	0.903974
880.092722	0.870397
880.402977	0.820438
880.713191	0.762635
881.023363	0.705401
881.333494	0.672363
881.643583	0.644800
881.953631	0.644214
882.263637	0.673039
882.573602	0.711544
882.883526	0.735921
883.193408	0.758789
883.503248	0.780303
883.813048	0.806167
884.122806	0.835702
884.432522	0.858086
884.742197	0.877214
885.051831	0.885928
885.361424	0.896771
885.670975	0.908095
885.980485	0.918735
886.289954	0.922085
886.599382	0.928301
886.908768	0.932217
887.218113	0.937477
887.527417	0.942110
887.836680	0.945625
888.145901	0.946407
888.455082	0.949557
888.764221	0.952774
889.073319	0.956654
889.382376	0.954471
889.691392	0.955704
890.000366	0.954891
890.309300	0.956041
890.618193	0.956233
890.927044	0.954035
891.235855	0.954101
891.544625	0.954125
891.853353	0.954497
892.162041	0.952758
892.470687	0.945365
892.779293	0.941959
893.087858	0.937603
893.396381	0.929862
893.704864	0.917211
894.013306	0.894119
894.321707	0.868968
894.630068	0.855834
894.938387	0.851740
895.246665	0.852712
895.554903	0.864142
895.863100	0.875401
896.171256	0.893020
896.479371	0.911800
896.787446	0.924153
897.095480	0.930018
897.403473	0.931640
897.711425	0.935829
898.019336	0.943849
898.327207	0.945517
898.635038	0.948424
898.942827	0.948494
899.250576	0.951346
899.558284	0.954988
899.865952	0.956679
900.173579	0.958283
900.481165	0.958397
900.788711	0.961813
901.096216	0.964166
901.403681	0.963280
901.711105	0.965809
902.018489	0.966418
902.325832	0.965084
902.633135	0.964928
902.940397	0.958713
903.247619	0.946736
903.554800	0.922415
903.861941	0.885768
904.169041	0.852115
904.476101	0.835606
904.783121	0.836434
905.090100	0.851935
905.397039	0.871535
905.703938	0.892342
906.010796	0.911169
906.317614	0.927621
906.624391	0.938162
906.931129	0.947417
907.237826	0.954728
907.544483	0.961742
907.851099	0.964480
908.157675	0.970385
908.464211	0.972216
908.770707	0.974744
909.077163	0.976057
909.383578	0.977001
909.689954	0.976301
909.996289	0.977415
910.302584	0.979759
910.608839	0.979834
910.915054	0.979918
911.221229	0.979746
911.527363	0.978059
911.833458	0.978722
912.139513	0.978511
912.445527	0.976804
912.751502	0.975478
913.057436	0.973869
913.363331	0.972467
913.669186	0.968722
913.975000	0.963895
914.280775	0.958751
914.586510	0.952103
914.892205	0.939943
915.197859	0.919789
915.503475	0.893444
915.809050	0.875684
916.114585	0.871206
916.420081	0.868733
916.725536	0.864895
917.030952	0.870725
917.336328	0.883692
917.641665	0.898486
917.946961	0.914453
918.252218	0.923740
918.557435	0.932336
918.862612	0.940759
919.167750	0.946299
919.472848	0.950210
919.777906	0.956397
920.082925	0.961567
920.387904	0.964291
920.692843	0.965907
920.997743	0.966621
921.302603	0.969828
921.607423	0.971720
921.912204	0.973956
922.216946	0.973357
922.521647	0.976034
922.826310	0.976538
923.130932	0.979600
923.435516	0.980147
923.740059	0.980628
924.044564	0.979597
924.349028	0.981917
924.653454	0.984735
924.957840	0.985802
925.262186	0.986268
925.566493	0.985360
925.870761	0.985108
926.174989	0.987509
926.479178	0.989696
926.783328	0.990166
927.087438	0.989336
927.391509	0.988057
927.695541	0.990791
927.999533	0.991238
928.303486	0.989799
928.607400	0.992002
928.911275	0.991476
929.215110	0.991140
929.518906	0.992074
929.822663	0.990500
930.126381	0.991509
930.430060	0.991324
930.733699	0.991689
931.037299	0.990667
931.340861	0.993596
931.644383	0.989960
931.947866	0.990671
932.251309	0.991501
932.554714	0.991150
932.858080	0.991021
933.161407	0.990884
933.464694	0.992920
933.767943	0.990260
934.071153	0.992261
934.374323	0.991640
934.677455	0.991264
934.980548	0.992453
935.283602	0.991345
935.586617	0.991849
935.889593	0.991587
936.192530	0.992039
936.495428	0.992935
936.798287	0.990843
937.101108	0.991357
937.403890	0.990293
937.706632	0.990394
938.009336	0.987691
938.312002	0.988745
938.614628	0.985163
938.917216	0.984597
939.219765	0.982669
939.522275	0.985533
939.824747	0.983441
940.127179	0.985108
940.429573	0.985629
940.731929	0.985215
941.034246	0.985819
941.336524	0.986986
941.638763	0.987623
941.940964	0.988328
942.243126	0.988425
942.545250	0.988640
942.847335	0.989376
943.149381	0.988819
943.451389	0.989161
943.753359	0.988791
944.055290	0.992451
944.357182	0.990009
944.659036	0.989356
944.960851	0.989187
945.262628	0.990725
945.564367	0.991511
945.866067	0.991773
946.167729	0.991053
946.469352	0.990860
946.770937	0.989387
947.072484	0.992223
947.373992	0.990955
947.675462	0.991599
947.976893	0.990879
948.278286	0.991791
948.579641	0.991811
948.880958	0.991694
949.182236	0.992384
949.483476	0.992442
949.784678	0.991057
950.085841	0.991686
950.386967	0.991810
950.688054	0.991996
950.989103	0.991446
951.290114	0.989534
951.591087	0.990454
951.892021	0.990947
952.192917	0.989952
952.493776	0.988917
952.794596	0.989001
953.095378	0.989715
953.396122	0.988453
953.696828	0.988433
953.997496	0.989682
954.298126	0.991906
954.598718	0.990342
954.899272	0.992369
955.199788	0.991228
955.500266	0.992386
955.800706	0.993651
956.101108	0.994283
956.401472	0.994420
956.701798	0.994609
957.002087	0.993497
957.302337	0.994398
957.602550	0.995430
957.902724	0.994704
958.202861	0.996680
958.502960	0.996392
958.803022	0.994574
959.103045	0.996681
959.403031	0.996240
959.702979	0.996067
960.002889	0.996092
960.302762	0.995861
960.602596	0.996298
960.902393	0.994927
961.202153	0.997073
961.501875	0.996331
961.801559	0.995910
962.101205	0.996587
962.400814	0.996607
962.700385	0.996553
962.999918	0.995865
963.299414	0.997207
963.598873	0.996139
963.898293	0.995735
964.197677	0.996630
964.497022	0.996886
964.796331	0.998413
965.095601	0.995960
965.394835	0.996523
965.694030	0.997856
965.993189	0.996506
966.292309	0.996609
966.591393	0.997700
966.890439	0.997614
967.189447	0.996613
967.488419	0.998377
967.787353	0.996456
968.086249	0.997097
968.385108	0.997566
968.683930	0.997027
968.982714	0.998337
969.281462	0.997339
969.580172	0.997184
969.878844	0.997508
970.177480	0.997088
970.476078	0.997205
970.774639	0.997982
971.073162	0.996940
971.371649	0.997231
971.670098	0.995741
971.968510	0.997533
972.266885	0.996107
972.565223	0.996924
972.863524	0.997408
973.161788	0.996332
973.460014	0.997603
973.758204	0.996495
974.056356	0.996199
974.354471	0.994237
974.652550	0.997575
974.950591	0.996623
975.248595	0.996816
975.546563	0.997106
975.844493	0.998068
976.142386	0.996501
976.440243	0.997940
976.738062	0.997307
977.035845	0.997686
977.333590	0.998670
977.631299	0.997714
977.928971	0.997062
978.226606	0.997110
978.524204	0.997470
978.821765	0.997361
979.119290	0.996723
979.416777	0.996516
979.714228	0.998396
980.011642	0.995430
980.309020	0.997657
980.606360	0.996948
980.903664	0.997817
981.200931	0.996450
981.498162	0.994477
981.795356	0.995711
982.092513	0.994025
982.389633	0.995319
982.686717	0.992720
982.983764	0.993634
983.280775	0.991382
983.577749	0.991104
983.874686	0.992315
984.171587	0.991698
984.468451	0.995436
984.765279	0.996147
985.062070	0.995104
985.358824	0.995035
985.655543	0.995195
985.952224	0.996376
986.248869	0.995865
986.545478	0.997363
986.842050	0.998849
987.138586	0.995840
987.435086	0.999308
987.731549	0.999278
988.027975	0.997113
988.324366	0.997785
988.620719	0.997322
988.917037	0.996328
989.213318	0.997320
989.509563	0.997568
989.805772	0.998316
990.101944	0.999039
990.398080	0.997786
990.694180	0.998062
990.990244	0.997132
991.286271	0.998612
991.582262	0.997872
991.878217	0.997901
992.174136	0.998192
992.470019	0.999214
992.765865	0.998159
993.061676	0.998344
993.357450	0.997173
993.653188	0.997830
993.948890	0.997218
994.244556	0.998889
994.540186	0.997023
994.835780	0.996059
995.131337	0.997662
995.426859	0.996831
995.722345	0.997723
996.017795	0.998310
996.313208	0.996466
996.608586	0.995518
996.903928	0.998013
997.199234	0.995509
997.494504	0.995483
997.789738	0.995943
998.084936	0.996715
998.380099	0.998632
998.675225	0.998198
998.970316	0.997676
999.265371	0.997904
999.560390	0.997756
999.855373	0.998395
1000.150320	0.998035
1000.445232	0.998525
1000.740108	0.998823
1001.034948	0.997967
1001.329752	0.998917
1001.624521	0.998256
1001.919254	0.998922
1002.213951	0.999162
1002.508613	0.997515
1002.803239	0.998326
1003.097829	0.998253
1003.392384	0.999679
1003.686903	0.997503
1003.981386	0.998259
1004.275834	0.999295
1004.570246	0.998984
1004.864623	0.999175
1005.158964	1.000818
1005.453270	0.997601
1005.747540	0.996553
1006.041775	0.998088
1006.335974	0.999955
1006.630138	0.999075
1006.924266	1.000169
1007.218359	1.000229
1007.512416	0.999015
1007.806438	0.999682
1008.100425	0.998776
1008.394376	0.999030
1008.688292	0.998560
1008.982172	1.000256
1009.276017	0.999521
1009.569827	0.998867
1009.863602	0.998422
1010.157341	1.000168
1010.451045	0.998813
1010.744714	0.999118
1011.038347	0.998531
1011.331945	0.998621
1011.625508	0.998803
1011.919036	0.998960
1012.212528	0.998431
1012.505986	0.997634
1012.799408	0.999653
1013.092795	0.998816
1013.386147	0.999117
1013.679464	0.999322
1013.972745	0.997691
1014.265992	0.998451
1014.559204	0.999760
1014.852380	0.998631
1015.145521	0.998284
1015.438628	0.998530
1015.731699	0.999543
1016.024736	0.999573
1016.317737	0.998035
1016.610703	0.999029
1016.903635	0.999526
1017.196531	0.997502
1017.489393	1.000799
1017.782219	0.998697
1018.075011	0.999009
1018.367768	0.999782
1018.660490	1.000338
1018.953177	1.000338
1019.245829	1.000338
