Dividing Wavelength (nm)	Counts (n)	Blue Motor Position (mm): 0.000000	Red Motor Position (mm): 20.900000	
326.493990	1.001231
326.888308	1.001231
327.282561	1.001231
327.676750	0.998671
328.070874	0.999796
328.464933	0.999335
328.858929	0.999731
329.252859	0.999538
329.646726	0.999296
330.040528	0.999940
330.434265	0.999557
330.827938	1.001175
331.221547	1.000227
331.615091	1.000388
332.008571	0.999570
332.401986	0.999853
332.795338	1.001021
333.188625	0.998820
333.581847	1.000707
333.975006	1.000856
334.368100	0.999156
334.761129	0.999938
335.154095	1.000850
335.546996	0.997782
335.939833	0.994461
336.332606	0.993736
336.725315	0.994386
337.117960	0.995534
337.510540	0.995646
337.903056	0.994672
338.295508	0.994001
338.687896	0.994346
339.080220	0.994094
339.472480	0.993490
339.864676	0.994234
340.256807	0.995303
340.648875	0.995791
341.040879	0.994970
341.432818	0.994255
341.824694	0.993807
342.216506	0.995098
342.608253	0.994104
342.999937	0.994835
343.391557	0.994714
343.783113	0.994052
344.174605	0.994473
344.566033	0.994152
344.957397	0.993165
345.348697	0.993932
345.739934	0.993945
346.131106	0.992984
346.522215	0.994203
346.913260	0.995223
347.304241	0.994960
347.695159	0.992980
348.086012	0.992760
348.476802	0.994305
348.867528	0.993856
349.258191	0.994214
349.648789	0.995227
350.039324	0.993440
350.429796	0.994463
350.820203	0.995221
351.210548	0.994683
351.600828	0.995060
351.991045	0.994315
352.381198	0.992341
352.771288	0.994228
353.161314	0.993867
353.551276	0.994785
353.941175	0.993820
354.331010	0.993151
354.720782	0.993706
355.110490	0.993381
355.500135	0.994559
355.889717	0.993649
356.279235	0.993785
356.668689	0.994719
357.058080	0.993223
357.447408	0.996240
357.836672	0.994397
358.225873	0.994225
358.615010	0.995374
359.004084	0.995774
359.393095	0.995616
359.782043	0.994714
360.170927	0.995977
360.559748	0.994590
360.948505	0.993572
361.337199	0.994938
361.725830	0.993932
362.114398	0.994184
362.502903	0.995407
362.891344	0.995694
363.279722	0.995027
363.668037	0.994610
364.056289	0.993900
364.444478	0.994802
364.832603	0.994017
365.220665	0.993540
365.608665	0.993757
365.996601	0.994334
366.384474	0.994578
366.772284	0.994752
367.160031	0.993565
367.547715	0.993349
367.935336	0.994046
368.322893	0.995010
368.710388	0.993656
369.097820	0.994190
369.485189	0.993803
369.872495	0.993242
370.259738	0.992984
370.646918	0.995023
371.034035	0.995271
371.421090	0.994514
371.808081	0.994527
372.195010	0.994592
372.581875	0.994292
372.968678	0.993554
373.355418	0.994129
373.742096	0.993880
374.128710	0.994881
374.515262	0.993419
374.901751	0.994390
375.288177	0.994112
375.674540	0.994511
376.060841	0.993849
376.447079	0.993888
376.833254	0.994713
377.219367	0.994772
377.605417	0.994712
377.991404	0.994417
378.377329	0.992869
378.763191	0.995539
379.148991	0.995200
379.534727	0.995702
379.920402	0.994723
380.306013	0.994453
380.691563	0.995668
381.077049	0.994540
381.462474	0.994934
381.847835	0.995280
382.233134	0.993759
382.618371	0.995022
383.003545	0.994860
383.388657	0.994064
383.773706	0.995366
384.158693	0.995549
384.543618	0.994619
384.928480	0.995249
385.313280	0.995193
385.698017	0.995968
386.082692	0.996517
386.467305	0.995607
386.851856	0.994611
387.236344	0.995087
387.620770	0.994479
388.005133	0.995865
388.389435	0.995969
388.773674	0.995308
389.157851	0.995246
389.541965	0.995515
389.926018	0.995323
390.310008	0.997253
390.693936	0.994323
391.077802	0.995759
391.461606	0.995257
391.845348	0.995895
392.229027	0.996563
392.612645	0.995809
392.996200	0.996136
393.379694	0.995537
393.763125	0.997647
394.146494	0.996526
394.529801	0.995492
394.913047	0.996803
395.296230	0.995157
395.679351	0.995402
396.062410	0.996084
396.445408	0.995610
396.828343	0.996103
397.211217	0.995041
397.594028	0.996563
397.976778	0.995337
398.359466	0.995591
398.742092	0.995662
399.124656	0.994909
399.507158	0.995840
399.889598	0.995677
400.271977	0.995714
400.654294	0.996197
401.036549	0.995911
401.418742	0.996043
401.800874	0.994690
402.182944	0.994629
402.564952	0.994482
402.946898	0.996681
403.328783	0.995443
403.710606	0.995334
404.092367	0.995399
404.474067	0.995286
404.855705	0.994972
405.237282	0.995855
405.618797	0.995601
406.000250	0.994571
406.381642	0.995624
406.762972	0.994421
407.144240	0.995904
407.525447	0.994731
407.906593	0.995101
408.287677	0.995420
408.668700	0.995574
409.049661	0.993693
409.430560	0.994927
409.811399	0.994680
410.192176	0.993981
410.572891	0.994017
410.953545	0.994802
411.334138	0.993316
411.714669	0.994645
412.095139	0.993662
412.475547	0.994169
412.855894	0.993597
413.236180	0.993636
413.616405	0.992552
413.996568	0.992977
414.376670	0.991498
414.756711	0.990953
415.136691	0.989609
415.516609	0.988064
415.896466	0.987847
416.276262	0.985541
416.655997	0.985529
417.035670	0.983083
417.415283	0.981328
417.794834	0.979753
418.174324	0.978527
418.553753	0.975946
418.933121	0.973362
419.312428	0.969524
419.691674	0.967219
420.070859	0.964697
420.449983	0.963054
420.829045	0.958622
421.208047	0.956203
421.586988	0.952201
421.965867	0.948013
422.344686	0.943728
422.723444	0.940479
423.102141	0.938463
423.480777	0.931353
423.859352	0.928624
424.237866	0.921128
424.616319	0.915805
424.994712	0.909894
425.373044	0.905604
425.751314	0.897033
426.129524	0.894472
426.507673	0.885357
426.885762	0.879621
427.263789	0.873219
427.641756	0.868583
428.019662	0.859479
428.397508	0.851522
428.775292	0.843906
429.153016	0.835125
429.530679	0.830681
429.908282	0.820478
430.285824	0.815917
430.663305	0.799473
431.040726	0.799203
431.418086	0.792759
431.795385	0.780495
432.172624	0.770570
432.549802	0.764064
432.926920	0.753880
433.303977	0.744306
433.680974	0.735650
434.057910	0.725010
434.434786	0.716542
434.811601	0.709101
435.188355	0.691257
435.565050	0.687915
435.941683	0.679787
436.318257	0.662208
436.694770	0.653659
437.071222	0.644064
437.447614	0.638201
437.823946	0.633976
438.200218	0.619069
438.576429	0.617311
438.952580	0.604457
439.328670	0.593887
439.704700	0.591659
440.080670	0.585521
440.456580	0.563317
440.832429	0.561655
441.208218	0.563805
441.583947	0.548391
441.959616	0.541034
442.335224	0.539406
442.710773	0.525905
443.086261	0.516977
443.461689	0.523363
443.837057	0.508997
444.212365	0.494425
444.587612	0.496000
444.962800	0.481417
445.337927	0.478247
445.712995	0.496335
446.088002	0.457915
446.462949	0.463246
446.837837	0.463088
447.212664	0.449854
447.587431	0.437771
447.962139	0.407441
448.336786	0.366432
448.711374	0.373150
449.085901	0.410458
449.460369	0.410761
449.834776	0.411608
450.209124	0.389359
450.583412	0.379779
450.957640	0.371196
451.331808	0.379284
451.705917	0.400338
452.079965	0.403048
452.453954	0.389435
452.827883	0.395172
453.201752	0.388716
453.575562	0.398626
453.949311	0.386126
454.323001	0.390961
454.696632	0.384929
455.070202	0.377569
455.443713	0.368857
455.817164	0.362578
456.190556	0.358064
456.563888	0.354389
456.937160	0.351211
457.310373	0.367784
457.683526	0.366195
458.056619	0.371169
458.429653	0.371784
458.802628	0.374751
459.175542	0.368412
459.548398	0.351372
459.921194	0.343178
460.293930	0.342843
460.666607	0.320893
461.039224	0.308967
461.411782	0.304592
461.784280	0.303718
462.156719	0.307700
462.529099	0.311915
462.901419	0.327664
463.273680	0.332119
463.645882	0.331197
464.018024	0.336867
464.390106	0.329910
464.762130	0.314730
465.134094	0.297732
465.505999	0.266914
465.877845	0.237430
466.249631	0.224804
466.621358	0.231795
466.993026	0.245622
467.364634	0.251673
467.736184	0.260422
468.107674	0.269016
468.479105	0.268241
468.850477	0.275013
469.221790	0.281669
469.593043	0.292055
469.964238	0.296590
470.335373	0.295764
470.706449	0.293981
471.077467	0.295077
471.448425	0.256942
471.819324	0.232806
472.190164	0.232040
472.560945	0.260778
472.931667	0.282935
473.302330	0.287188
473.672934	0.298937
474.043479	0.287238
474.413965	0.288939
474.784393	0.292236
475.154761	0.287257
475.525070	0.284589
475.895321	0.290478
476.265513	0.284588
476.635645	0.279576
477.005719	0.279899
477.375734	0.276329
477.745691	0.269728
478.115588	0.266334
478.485427	0.259893
478.855207	0.246512
479.224928	0.229347
479.594591	0.217485
479.964194	0.220733
480.333739	0.222176
480.703226	0.223521
481.072653	0.222248
481.442022	0.217743
481.811333	0.214181
482.180584	0.217565
482.549777	0.223233
482.918912	0.226309
483.287988	0.225874
483.657005	0.225560
484.025964	0.232006
484.394864	0.229298
484.763706	0.229880
485.132489	0.234761
485.501213	0.235760
485.869879	0.234076
486.238487	0.237481
486.607036	0.235099
486.975527	0.239587
487.343959	0.235586
487.712333	0.234504
488.080648	0.236150
488.448905	0.235204
488.817104	0.236675
489.185244	0.231037
489.553326	0.227823
489.921350	0.218060
490.289315	0.200504
490.657222	0.195435
491.025070	0.196704
491.392861	0.198517
491.760593	0.204226
492.128267	0.209948
492.495883	0.215384
492.863440	0.221467
493.230939	0.228159
493.598380	0.229086
493.965763	0.231305
494.333088	0.233681
494.700354	0.234939
495.067563	0.233845
495.434713	0.236971
495.801805	0.235152
496.168839	0.236569
496.535815	0.237939
496.902733	0.238108
497.269593	0.239296
497.636395	0.237113
498.003139	0.237516
498.369825	0.240149
498.736453	0.236892
499.103023	0.238144
499.469535	0.237811
499.835989	0.237755
500.202385	0.238716
500.568723	0.242050
500.935003	0.237509
501.301226	0.241553
501.667390	0.235955
502.033497	0.233850
502.399546	0.236906
502.765537	0.238679
503.131470	0.237358
503.497345	0.233599
503.863163	0.242274
504.228923	0.234974
504.594625	0.233832
504.960269	0.239179
505.325856	0.234527
505.691385	0.239044
506.056856	0.235644
506.422270	0.234932
506.787625	0.237452
507.152924	0.235124
507.518164	0.235218
507.883347	0.236952
508.248472	0.238679
508.613540	0.233757
508.978550	0.236177
509.343503	0.236488
509.708398	0.234524
510.073236	0.232051
510.438016	0.232175
510.802738	0.233036
511.167403	0.231990
511.532010	0.234098
511.896561	0.229237
512.261053	0.228278
512.625488	0.230202
512.989866	0.230635
513.354186	0.230892
513.718449	0.232828
514.082655	0.228915
514.446803	0.231386
514.810894	0.228959
515.174927	0.231583
515.538904	0.230861
515.902822	0.227772
516.266684	0.230283
516.630488	0.231439
516.994235	0.230430
517.357925	0.229007
517.721558	0.227473
518.085133	0.226845
518.448651	0.226897
518.812112	0.229507
519.175516	0.228859
519.538863	0.226653
519.902152	0.228115
520.265385	0.225026
520.628560	0.226680
520.991678	0.227162
521.354739	0.226015
521.717743	0.227428
522.080690	0.227748
522.443580	0.225117
522.806413	0.225825
523.169189	0.225445
523.531908	0.224284
523.894569	0.227625
524.257174	0.227508
524.619722	0.225487
524.982213	0.226551
525.344647	0.225454
525.707025	0.226528
526.069345	0.224268
526.431608	0.226353
526.793815	0.224266
527.155964	0.228199
527.518057	0.227333
527.880093	0.228237
528.242072	0.226973
528.603995	0.228662
528.965860	0.230527
529.327669	0.229156
529.689421	0.230035
530.051117	0.231028
530.412755	0.228568
530.774337	0.230970
531.135862	0.231506
531.497331	0.230776
531.858743	0.233625
532.220098	0.230244
532.581396	0.232855
532.942638	0.233459
533.303824	0.234319
533.664953	0.234200
534.026025	0.235779
534.387040	0.233721
534.747999	0.233916
535.108902	0.232525
535.469748	0.237395
535.830537	0.235623
536.191270	0.235741
536.551947	0.235150
536.912567	0.235410
537.273131	0.237295
537.633638	0.237340
537.994089	0.237619
538.354483	0.238844
538.714821	0.235810
539.075103	0.235457
539.435328	0.236117
539.795497	0.240116
540.155609	0.236462
540.515665	0.234506
540.875665	0.240508
541.235609	0.238893
541.595496	0.239207
541.955328	0.235629
542.315102	0.238109
542.674821	0.239204
543.034483	0.239251
543.394090	0.238729
543.753640	0.240817
544.113134	0.235946
544.472571	0.239297
544.831953	0.236076
545.191278	0.240199
545.550548	0.239598
545.909761	0.236483
546.268918	0.236778
546.628019	0.235140
546.987064	0.238244
547.346053	0.239897
547.704986	0.237905
548.063863	0.238308
548.422684	0.238364
548.781449	0.240252
549.140158	0.237864
549.498811	0.240556
549.857408	0.243885
550.215949	0.238816
550.574434	0.241326
550.932864	0.239623
551.291237	0.238123
551.649555	0.239737
552.007817	0.239656
552.366022	0.240046
552.724173	0.240381
553.082267	0.240661
553.440305	0.237628
553.798288	0.242272
554.156215	0.238544
554.514086	0.239076
554.871902	0.242489
555.229661	0.241827
555.587365	0.242044
555.945014	0.244717
556.302606	0.241648
556.660143	0.244205
557.017625	0.240725
557.375050	0.243197
557.732421	0.240036
558.089735	0.242173
558.446994	0.241993
558.804197	0.241192
559.161345	0.241079
559.518437	0.244583
559.875474	0.242331
560.232455	0.241733
560.589381	0.242633
560.946251	0.243104
561.303065	0.240695
561.659825	0.242110
562.016528	0.243367
562.373177	0.246378
562.729770	0.243717
563.086307	0.245588
563.442789	0.243651
563.799216	0.246485
564.155587	0.245228
564.511904	0.245956
564.868164	0.246293
565.224370	0.246175
565.580520	0.247954
565.936615	0.248053
566.292654	0.250896
566.648638	0.247956
567.004567	0.248516
567.360441	0.249311
567.716260	0.251184
568.072023	0.249311
568.427732	0.249817
568.783385	0.252530
569.138982	0.250387
569.494525	0.250059
569.850013	0.252753
570.205445	0.251455
570.560823	0.253681
570.916145	0.255694
571.271412	0.254067
571.626625	0.255371
571.981782	0.256232
572.336884	0.256927
572.691931	0.256559
573.046923	0.257870
573.401860	0.259060
573.756743	0.260389
574.111570	0.259613
574.466342	0.260159
574.821059	0.259321
575.175722	0.261693
575.530330	0.261891
575.884882	0.262185
576.239380	0.264019
576.593823	0.264593
576.948211	0.263985
577.302544	0.267198
577.656823	0.266938
578.011047	0.267079
578.365216	0.267741
578.719330	0.269588
579.073389	0.269695
579.427394	0.270811
579.781344	0.271475
580.135239	0.272974
580.489080	0.272520
580.842866	0.275466
581.196597	0.275438
581.550273	0.274293
581.903895	0.275124
582.257463	0.273433
582.610975	0.276471
582.964434	0.275863
583.317837	0.278152
583.671186	0.278933
584.024481	0.278596
584.377721	0.281774
584.730906	0.281985
585.084037	0.280997
585.437113	0.282876
585.790135	0.282648
586.143103	0.285388
586.496016	0.286486
586.848874	0.283987
587.201679	0.284504
587.554428	0.287835
587.907124	0.286919
588.259765	0.287062
588.612352	0.288071
588.964884	0.291553
589.317362	0.291139
589.669786	0.291261
590.022155	0.289659
590.374470	0.289146
590.726731	0.291126
591.078937	0.296025
591.431090	0.292013
591.783188	0.296461
592.135232	0.296696
592.487222	0.296831
592.839157	0.295279
593.191038	0.297143
593.542866	0.299487
593.894639	0.302622
594.246358	0.300627
594.598022	0.300169
594.949633	0.303667
595.301190	0.304611
595.652692	0.303856
596.004141	0.300179
596.355535	0.307830
596.706876	0.308179
597.058162	0.310812
597.409395	0.308313
597.760573	0.305920
598.111698	0.308993
598.462768	0.309859
598.813785	0.311146
599.164748	0.311731
599.515657	0.312217
599.866511	0.315746
600.217312	0.311074
600.568060	0.316530
600.918753	0.312809
601.269392	0.313782
601.619978	0.317082
601.970510	0.314863
602.320988	0.314619
602.671412	0.312844
603.021783	0.315031
603.372100	0.316503
603.722363	0.316126
604.072572	0.316680
604.422728	0.316574
604.772830	0.318495
605.122878	0.318306
605.472872	0.318675
605.822813	0.317166
606.172701	0.319796
606.522534	0.316871
606.872314	0.317109
607.222041	0.318093
607.571714	0.315950
607.921333	0.317308
608.270899	0.317001
608.620411	0.313871
608.969870	0.317942
609.319276	0.317892
609.668627	0.318232
610.017926	0.316816
610.367171	0.315073
610.716362	0.316098
611.065500	0.315764
611.414585	0.314738
611.763616	0.315350
612.112594	0.315816
612.461518	0.314967
612.810389	0.313102
613.159207	0.315055
613.507971	0.317080
613.856682	0.312622
614.205340	0.314433
614.553945	0.311383
614.902496	0.314773
615.250994	0.313243
615.599439	0.313948
615.947830	0.313084
616.296169	0.314416
616.644454	0.313501
616.992686	0.313478
617.340864	0.311420
617.688990	0.315171
618.037063	0.311811
618.385082	0.313774
618.733048	0.310822
619.080961	0.312922
619.428821	0.312031
619.776628	0.311922
620.124382	0.313837
620.472083	0.314082
620.819731	0.313773
621.167326	0.317092
621.514868	0.317043
621.862357	0.321427
622.209793	0.321268
622.557176	0.322960
622.904506	0.324285
623.251783	0.326775
623.599007	0.328707
623.946179	0.328355
624.293297	0.330320
624.640363	0.334013
624.987376	0.334625
625.334336	0.337309
625.681243	0.339937
626.028097	0.340008
626.374899	0.341236
626.721647	0.341329
627.068343	0.344531
627.414987	0.345364
627.761577	0.347887
628.108115	0.345892
628.454600	0.351051
628.801032	0.348737
629.147412	0.350560
629.493739	0.350796
629.840014	0.353855
630.186236	0.351386
630.532405	0.357037
630.878521	0.354654
631.224585	0.356740
631.570597	0.360797
631.916556	0.358478
632.262462	0.358926
632.608316	0.361109
632.954117	0.361854
633.299866	0.362862
633.645562	0.363180
633.991206	0.367287
634.336797	0.370577
634.682336	0.372884
635.027823	0.374081
635.373257	0.374695
635.718639	0.378400
636.063968	0.377574
636.409245	0.383266
636.754470	0.383621
637.099642	0.386115
637.444762	0.389361
637.789829	0.388454
638.134845	0.392378
638.479808	0.393411
638.824719	0.393339
639.169577	0.396738
639.514383	0.395532
639.859137	0.400104
640.203839	0.399587
640.548489	0.399960
640.893086	0.401551
641.237632	0.403272
641.582125	0.401540
641.926566	0.403181
642.270955	0.403719
642.615292	0.403486
642.959576	0.403007
643.303809	0.403813
643.647990	0.403395
643.992118	0.403764
644.336195	0.407091
644.680219	0.405273
645.024192	0.405917
645.368112	0.399337
645.711981	0.398356
646.055797	0.394199
646.399562	0.396710
646.743274	0.388786
647.086935	0.385803
647.430544	0.386058
647.774101	0.384715
648.117606	0.384736
648.461059	0.384676
648.804460	0.387500
649.147810	0.392279
649.491108	0.394348
649.834354	0.395926
650.177548	0.401096
650.520690	0.406855
650.863781	0.407734
651.206820	0.407296
651.549807	0.411868
651.892742	0.416131
652.235626	0.415002
652.578458	0.416200
652.921238	0.422446
653.263967	0.419992
653.606644	0.424200
653.949269	0.424010
654.291843	0.427678
654.634365	0.423903
654.976836	0.427584
655.319255	0.428290
655.661622	0.429668
656.003938	0.429331
656.346203	0.431916
656.688416	0.430533
657.030577	0.434018
657.372687	0.436052
657.714746	0.436201
658.056753	0.433190
658.398708	0.437404
658.740612	0.438159
659.082465	0.434279
659.424266	0.434979
659.766016	0.434423
660.107715	0.437317
660.449362	0.436123
660.790958	0.436529
661.132503	0.437565
661.473996	0.434627
661.815438	0.435518
662.156829	0.435991
662.498168	0.436575
662.839456	0.438257
663.180693	0.435855
663.521879	0.435828
663.863013	0.437064
664.204097	0.435535
664.545129	0.432615
664.886110	0.432790
665.227040	0.429710
665.567918	0.432238
665.908746	0.430711
666.249522	0.429997
666.590248	0.431230
666.930922	0.429716
667.271545	0.428364
667.612118	0.427778
667.952639	0.430666
668.293109	0.428292
668.633528	0.431263
668.973896	0.431655
669.314213	0.431540
669.654480	0.433088
669.994695	0.433615
670.334859	0.434601
670.674973	0.434790
671.015035	0.434776
671.355047	0.434935
671.695008	0.436059
672.034918	0.437205
672.374777	0.436576
672.714585	0.437673
673.054342	0.438195
673.394049	0.438875
673.733705	0.435540
674.073310	0.437089
674.412864	0.440262
674.752368	0.440143
675.091820	0.440869
675.431223	0.445039
675.770574	0.444789
676.109875	0.447892
676.449125	0.448143
676.788324	0.450787
677.127473	0.455840
677.466571	0.455253
677.805619	0.457142
678.144616	0.458345
678.483562	0.460017
678.822458	0.462382
679.161303	0.463849
679.500098	0.463988
679.838842	0.465042
680.177535	0.465535
680.516179	0.463570
680.854771	0.462729
681.193314	0.456057
681.531805	0.447398
681.870247	0.435871
682.208638	0.427893
682.546978	0.427823
682.885268	0.428931
683.223508	0.435200
683.561697	0.438912
683.899836	0.441573
684.237925	0.445194
684.575963	0.447558
684.913951	0.450397
685.251889	0.446366
685.589776	0.448896
685.927614	0.450984
686.265401	0.445080
686.603137	0.446571
686.940824	0.440251
687.278460	0.439150
687.616046	0.438166
687.953582	0.432944
688.291068	0.434549
688.628504	0.430240
688.965889	0.432239
689.303224	0.436435
689.640510	0.440566
689.977745	0.446159
690.314930	0.453973
690.652065	0.458301
690.989150	0.466623
691.326185	0.472824
691.663170	0.477192
692.000105	0.484384
692.336990	0.491165
692.673825	0.493818
693.010610	0.500652
693.347345	0.506890
693.684030	0.507190
694.020665	0.512609
694.357251	0.520877
694.693786	0.520954
695.030272	0.525040
695.366707	0.528674
695.703093	0.532432
696.039429	0.529729
696.375716	0.531276
696.711952	0.534025
697.048139	0.536021
697.384276	0.537780
697.720363	0.536487
698.056400	0.535341
698.392388	0.540651
698.728326	0.544183
699.064214	0.546163
699.400053	0.548082
699.735842	0.551223
700.071581	0.554431
700.407270	0.556774
700.742910	0.559084
701.078501	0.565987
701.414042	0.565807
701.749533	0.569654
702.084974	0.578187
702.420366	0.570247
702.755709	0.578263
703.091002	0.585552
703.426246	0.579307
703.761440	0.585185
704.096584	0.589730
704.431679	0.586284
704.766725	0.588325
705.101721	0.590533
705.436668	0.586656
705.771565	0.593470
706.106413	0.591027
706.441212	0.585708
706.775961	0.584527
707.110661	0.586924
707.445311	0.583247
707.779913	0.581105
708.114465	0.579402
708.448967	0.575627
708.783421	0.568014
709.117825	0.562456
709.452180	0.562093
709.786485	0.556029
710.120742	0.546394
710.454949	0.547994
710.789107	0.540453
711.123216	0.532148
711.457275	0.532888
711.791286	0.524376
712.125247	0.523087
712.459159	0.533665
712.793023	0.527035
713.126837	0.530501
713.460602	0.531142
713.794318	0.540245
714.127985	0.539087
714.461602	0.549412
714.795171	0.551931
715.128691	0.560080
715.462162	0.567366
715.795584	0.573574
716.128957	0.576013
716.462281	0.582001
716.795556	0.586460
717.128782	0.591164
717.461960	0.600506
717.795088	0.599262
718.128167	0.605850
718.461198	0.614434
718.794180	0.614893
719.127113	0.617473
719.459997	0.621465
719.792833	0.627497
720.125619	0.628754
720.458357	0.634090
720.791046	0.633959
721.123686	0.637380
721.456278	0.644274
721.788821	0.641052
722.121315	0.646041
722.453761	0.649941
722.786158	0.648089
723.118506	0.644765
723.450805	0.651673
723.783056	0.648698
724.115259	0.645724
724.447412	0.645700
724.779518	0.646710
725.111574	0.645245
725.443582	0.640761
725.775542	0.642934
726.107453	0.634688
726.439315	0.635464
726.771129	0.633961
727.102895	0.626347
727.434612	0.620073
727.766281	0.617172
728.097901	0.617963
728.429473	0.616516
728.760996	0.614647
729.092471	0.615777
729.423897	0.618754
729.755276	0.617416
730.086606	0.618812
730.417887	0.612197
730.749120	0.603990
731.080305	0.594498
731.411442	0.590548
731.742530	0.595517
732.073570	0.594218
732.404562	0.586873
732.735506	0.588785
733.066401	0.593035
733.397249	0.601699
733.728048	0.614173
734.058798	0.625829
734.389501	0.637014
734.720156	0.646623
735.050762	0.654391
735.381320	0.655764
735.711831	0.665022
736.042293	0.669639
736.372707	0.665330
736.703073	0.669950
737.033391	0.672150
737.363661	0.669141
737.693883	0.664467
738.024056	0.663620
738.354182	0.663887
738.684260	0.652247
739.014290	0.648955
739.344272	0.649852
739.674207	0.643159
740.004093	0.643184
740.333931	0.643869
740.663722	0.643342
740.993464	0.643522
741.323159	0.647244
741.652806	0.652694
741.982405	0.657589
742.311956	0.661523
742.641460	0.664316
742.970915	0.667855
743.300323	0.675245
743.629683	0.681608
743.958996	0.683604
744.288260	0.687595
744.617477	0.694558
744.946647	0.696186
745.275768	0.701462
745.604842	0.701271
745.933869	0.710393
746.262847	0.711719
746.591778	0.704807
746.920662	0.710673
747.249498	0.718286
747.578286	0.708568
747.907027	0.705216
748.235720	0.706095
748.564365	0.700115
748.892963	0.699982
749.221514	0.702846
749.550017	0.708877
749.878473	0.707709
750.206881	0.714706
750.535242	0.715625
750.863555	0.714979
751.191821	0.716170
751.520039	0.719410
751.848210	0.724413
752.176334	0.717425
752.504411	0.716470
752.832440	0.723629
753.160421	0.728162
753.488356	0.726765
753.816243	0.724003
754.144082	0.731834
754.471875	0.736075
754.799620	0.731202
755.127318	0.732863
755.454969	0.732680
755.782572	0.731460
756.110129	0.736350
756.437638	0.739673
756.765100	0.736507
757.092515	0.734919
757.419882	0.733573
757.747203	0.738385
758.074477	0.738244
758.401703	0.734424
758.728882	0.730130
759.056014	0.728449
759.383099	0.727655
759.710138	0.728209
760.037129	0.725435
760.364073	0.719401
760.690970	0.721335
761.017820	0.726885
761.344623	0.722506
761.671379	0.713977
761.998088	0.702027
762.324751	0.680159
762.651366	0.638184
762.977935	0.570934
763.304456	0.519305
763.630931	0.510061
763.957359	0.548504
764.283740	0.592857
764.610074	0.621020
764.936362	0.650947
765.262602	0.677772
765.588796	0.699704
765.914943	0.716717
766.241044	0.735208
766.567097	0.741516
766.893104	0.750565
767.219064	0.757390
767.544978	0.764489
767.870845	0.777644
768.196665	0.780977
768.522438	0.779814
768.848165	0.780310
769.173846	0.789850
769.499479	0.793763
769.825066	0.796882
770.150607	0.803121
770.476101	0.797623
770.801548	0.798669
771.126949	0.809578
771.452303	0.813789
771.777611	0.813073
772.102872	0.812927
772.428087	0.818578
772.753256	0.821114
773.078378	0.823439
773.403453	0.831763
773.728482	0.837140
774.053465	0.829021
774.378401	0.834645
774.703291	0.842057
775.028135	0.841782
775.352932	0.843407
775.677683	0.845780
776.002388	0.845570
776.327046	0.845320
776.651658	0.848664
776.976224	0.851932
777.300743	0.853017
777.625216	0.855436
777.949643	0.857182
778.274024	0.857375
778.598359	0.858507
778.922647	0.857287
779.246889	0.857664
779.571086	0.861680
779.895236	0.864287
780.219339	0.860433
780.543397	0.858521
780.867409	0.857262
781.191374	0.858953
781.515294	0.860680
781.839167	0.859127
782.162995	0.862882
782.486776	0.859830
782.810511	0.860346
783.134201	0.864061
783.457844	0.860758
783.781441	0.864714
784.104993	0.871590
784.428498	0.869803
784.751958	0.866120
785.075372	0.868605
785.398739	0.872374
785.722061	0.869067
786.045337	0.864144
786.368568	0.869545
786.691752	0.872023
787.014891	0.856970
787.337983	0.848783
787.661030	0.841320
787.984031	0.822802
788.306987	0.810990
788.629897	0.812939
788.952760	0.817209
789.275579	0.821695
789.598351	0.835877
789.921078	0.850754
790.243759	0.850912
790.566395	0.856705
790.888984	0.862949
791.211529	0.868663
791.534027	0.871854
791.856480	0.873662
792.178888	0.878661
792.501249	0.882336
792.823566	0.883205
793.145836	0.883216
793.468062	0.884324
793.790241	0.884024
794.112375	0.883621
794.434464	0.879689
794.756507	0.877407
795.078505	0.877853
795.400457	0.872764
795.722364	0.859414
796.044226	0.853377
796.366042	0.852585
796.687812	0.855744
797.009538	0.851355
797.331218	0.854633
797.652852	0.860347
797.974442	0.864893
798.295986	0.864086
798.617484	0.865543
798.938938	0.870641
799.260346	0.876019
799.581709	0.878041
799.903026	0.880429
800.224299	0.880738
800.545526	0.884373
800.866708	0.888388
801.187845	0.892989
801.508936	0.891297
801.829983	0.889415
802.150984	0.891822
802.471940	0.897567
802.792851	0.897072
803.113717	0.898215
803.434538	0.896121
803.755314	0.898896
804.076045	0.900367
804.396731	0.900298
804.717372	0.899743
805.037967	0.902137
805.358518	0.900309
805.679024	0.897281
805.999485	0.897271
806.319901	0.895957
806.640272	0.897705
806.960598	0.896946
807.280879	0.893393
807.601115	0.892727
807.921306	0.896396
808.241453	0.895566
808.561554	0.895374
808.881611	0.894348
809.201623	0.896297
809.521590	0.896234
809.841513	0.897317
810.161390	0.895831
810.481223	0.897538
810.801011	0.901520
811.120755	0.902371
811.440453	0.901738
811.760107	0.900068
812.079716	0.901078
812.399281	0.904047
812.718801	0.905671
813.038276	0.908180
813.357707	0.906947
813.677093	0.904280
813.996434	0.907708
814.315731	0.909366
814.634983	0.909821
814.954191	0.908314
815.273354	0.905459
815.592473	0.901437
815.911547	0.901714
816.230577	0.898409
816.549562	0.896363
816.868502	0.897124
817.187399	0.892996
817.506250	0.888060
817.825058	0.890561
818.143821	0.885992
818.462539	0.880620
818.781213	0.872935
819.099843	0.862199
819.418429	0.846262
819.736970	0.829857
820.055466	0.809805
820.373919	0.784241
820.692327	0.750930
821.010691	0.717186
821.329011	0.639795
821.647286	0.524326
821.965517	0.410864
822.283704	0.368152
822.601847	0.369483
822.919945	0.405341
823.237999	0.439039
823.556010	0.485746
823.873976	0.540826
824.191897	0.591777
824.509775	0.634525
824.827609	0.679508
825.145398	0.702865
825.463144	0.705536
825.780845	0.688124
826.098502	0.668652
826.416116	0.623072
826.733685	0.579746
827.051210	0.571432
827.368692	0.585819
827.686129	0.623082
828.003522	0.676620
828.320872	0.722869
828.638177	0.766710
828.955439	0.799423
829.272656	0.821451
829.589830	0.839265
829.906960	0.853988
830.224046	0.867064
830.541088	0.877952
830.858086	0.881279
831.175041	0.887874
831.491952	0.886436
831.808819	0.883881
832.125642	0.877654
832.442421	0.861933
832.759157	0.840547
833.075849	0.794303
833.392497	0.730727
833.709101	0.689053
834.025662	0.698676
834.342179	0.730909
834.658653	0.770696
834.975083	0.805846
835.291469	0.831583
835.607811	0.854403
835.924110	0.870947
836.240366	0.887205
836.556578	0.901317
836.872746	0.907702
837.188871	0.915789
837.504952	0.920542
837.820990	0.923301
838.136984	0.927658
838.452935	0.931393
838.768842	0.931795
839.084706	0.924484
839.400526	0.900153
839.716303	0.858683
840.032037	0.836767
840.347727	0.840929
840.663373	0.859341
840.978977	0.880714
841.294537	0.902390
841.610054	0.918283
841.925527	0.926528
842.240957	0.932410
842.556344	0.939895
842.871687	0.945217
843.186987	0.950990
843.502244	0.950453
843.817458	0.952007
844.132629	0.956257
844.447756	0.960516
844.762840	0.960873
845.077881	0.959427
845.392879	0.960327
845.707833	0.962906
846.022745	0.966376
846.337613	0.966262
846.652438	0.966353
846.967221	0.964328
847.281960	0.965688
847.596656	0.967940
847.911309	0.966063
848.225919	0.967605
848.540485	0.968301
848.855009	0.969160
849.169490	0.969222
849.483928	0.969557
849.798323	0.968765
850.112675	0.970987
850.426984	0.969950
850.741251	0.969635
851.055474	0.970604
851.369654	0.968686
851.683792	0.969434
851.997887	0.969718
852.311938	0.970828
852.625947	0.970923
852.939914	0.968113
853.253837	0.969281
853.567718	0.970448
853.881555	0.969420
854.195350	0.968755
854.509103	0.970080
854.822812	0.970331
855.136479	0.970989
855.450103	0.969052
855.763685	0.969128
856.077224	0.969470
856.390720	0.970541
856.704173	0.970413
857.017584	0.968422
857.330953	0.967538
857.644278	0.968717
857.957561	0.967764
858.270802	0.968419
858.584000	0.968183
858.897155	0.967255
859.210268	0.967937
859.523339	0.967801
859.836367	0.970517
860.149352	0.971025
860.462295	0.967895
860.775195	0.970154
861.088054	0.969560
861.400869	0.968737
861.713642	0.970529
862.026373	0.969982
862.339062	0.971995
862.651708	0.967671
862.964312	0.967963
863.276873	0.969763
863.589392	0.968295
863.901869	0.966452
864.214303	0.965577
864.526696	0.963996
864.839045	0.964312
865.151353	0.962728
865.463619	0.962588
865.775842	0.962544
866.088023	0.962336
866.400162	0.963556
866.712258	0.962637
867.024313	0.962337
867.336325	0.964169
867.648296	0.963530
867.960224	0.961936
868.272110	0.961008
868.583954	0.963471
868.895755	0.964231
869.207515	0.962132
869.519233	0.959964
869.830909	0.961680
870.142542	0.962842
870.454134	0.962165
870.765684	0.961139
871.077191	0.958398
871.388657	0.958195
871.700081	0.958988
872.011463	0.958382
872.322803	0.957894
872.634101	0.956777
872.945357	0.955156
873.256571	0.953333
873.567744	0.952266
873.878874	0.953368
874.189963	0.951939
874.501010	0.951215
874.812015	0.949360
875.122979	0.952417
875.433900	0.952996
875.744780	0.953906
876.055618	0.951828
876.366415	0.948342
876.677169	0.950592
876.987882	0.951937
877.298554	0.951785
877.609183	0.947367
877.919771	0.945774
878.230317	0.942615
878.540822	0.941059
878.851285	0.935729
879.161707	0.927515
879.472087	0.916542
879.782425	0.899844
880.092722	0.865560
880.402977	0.813008
880.713191	0.753419
881.023363	0.693837
881.333494	0.660318
881.643583	0.632383
881.953631	0.631872
882.263637	0.660550
882.573602	0.700079
882.883526	0.725715
883.193408	0.749184
883.503248	0.770998
883.813048	0.798205
884.122806	0.827588
884.432522	0.852408
884.742197	0.871250
885.051831	0.882480
885.361424	0.891364
885.670975	0.904371
885.980485	0.913623
886.289954	0.919346
886.599382	0.924004
886.908768	0.928720
887.218113	0.934663
887.527417	0.939170
887.836680	0.942426
888.145901	0.943801
888.455082	0.946515
888.764221	0.950314
889.073319	0.953229
889.382376	0.953054
889.691392	0.952702
890.000366	0.952717
890.309300	0.953430
890.618193	0.953552
890.927044	0.952134
891.235855	0.951578
891.544625	0.951961
891.853353	0.951810
892.162041	0.949788
892.470687	0.942535
892.779293	0.937828
893.087858	0.934734
893.396381	0.925249
893.704864	0.913490
894.013306	0.890264
894.321707	0.863685
894.630068	0.849615
894.938387	0.844777
895.246665	0.845435
895.554903	0.857990
895.863100	0.870658
896.171256	0.888080
896.479371	0.906831
896.787446	0.919700
897.095480	0.925273
897.403473	0.928680
897.711425	0.933377
898.019336	0.941326
898.327207	0.944000
898.635038	0.945944
898.942827	0.944193
899.250576	0.948950
899.558284	0.952392
899.865952	0.954458
900.173579	0.955883
900.481165	0.956634
900.788711	0.959821
901.096216	0.960632
901.403681	0.961658
901.711105	0.962662
902.018489	0.963788
902.325832	0.962988
902.633135	0.961962
902.940397	0.955316
903.247619	0.944374
903.554800	0.919096
903.861941	0.878812
904.169041	0.844093
904.476101	0.827821
904.783121	0.827373
905.090100	0.843473
905.397039	0.864533
905.703938	0.886707
906.010796	0.906762
906.317614	0.923691
906.624391	0.934899
906.931129	0.944960
907.237826	0.952184
907.544483	0.959986
907.851099	0.962956
908.157675	0.967336
908.464211	0.970136
908.770707	0.971799
909.077163	0.974874
909.383578	0.974981
909.689954	0.974507
909.996289	0.975968
910.302584	0.978703
910.608839	0.979410
910.915054	0.978185
911.221229	0.978652
911.527363	0.977898
911.833458	0.976674
912.139513	0.977417
912.445527	0.976621
912.751502	0.974127
913.057436	0.972406
913.363331	0.970581
913.669186	0.967161
913.975000	0.961470
914.280775	0.955010
914.586510	0.947616
914.892205	0.936001
915.197859	0.914621
915.503475	0.886465
915.809050	0.868165
916.114585	0.862405
916.420081	0.860205
916.725536	0.855937
917.030952	0.864979
917.336328	0.877801
917.641665	0.893050
917.946961	0.908695
918.252218	0.919573
918.557435	0.927536
918.862612	0.936601
919.167750	0.941903
919.472848	0.947440
919.777906	0.952427
920.082925	0.958909
920.387904	0.962037
920.692843	0.962340
920.997743	0.964364
921.302603	0.968063
921.607423	0.968835
921.912204	0.971819
922.216946	0.970838
922.521647	0.973333
922.826310	0.974143
923.130932	0.977119
923.435516	0.978827
923.740059	0.980705
924.044564	0.978995
924.349028	0.981887
924.653454	0.982879
924.957840	0.985086
925.262186	0.984551
925.566493	0.983498
925.870761	0.984359
926.174989	0.986467
926.479178	0.989350
926.783328	0.988610
927.087438	0.987961
927.391509	0.988886
927.695541	0.989149
927.999533	0.989969
928.303486	0.989103
928.607400	0.991929
928.911275	0.988784
929.215110	0.988863
929.518906	0.990444
929.822663	0.989136
930.126381	0.990760
930.430060	0.990859
930.733699	0.990448
931.037299	0.988500
931.340861	0.990716
931.644383	0.989790
931.947866	0.989590
932.251309	0.990189
932.554714	0.991357
932.858080	0.990699
933.161407	0.990377
933.464694	0.991206
933.767943	0.989768
934.071153	0.990859
934.374323	0.992605
934.677455	0.990876
934.980548	0.992925
935.283602	0.990465
935.586617	0.991483
935.889593	0.989886
936.192530	0.991417
936.495428	0.991089
936.798287	0.991443
937.101108	0.989963
937.403890	0.990618
937.706632	0.988706
938.009336	0.987326
938.312002	0.985524
938.614628	0.984549
938.917216	0.983978
939.219765	0.982812
939.522275	0.984390
939.824747	0.982568
940.127179	0.982726
940.429573	0.984522
940.731929	0.984412
941.034246	0.984345
941.336524	0.985397
941.638763	0.987191
941.940964	0.987109
942.243126	0.986919
942.545250	0.986719
942.847335	0.988028
943.149381	0.988852
943.451389	0.988864
943.753359	0.988292
944.055290	0.990771
944.357182	0.990104
944.659036	0.988497
944.960851	0.989690
945.262628	0.989385
945.564367	0.990567
945.866067	0.989822
946.167729	0.990223
946.469352	0.989814
946.770937	0.989434
947.072484	0.990696
947.373992	0.990942
947.675462	0.990071
947.976893	0.989812
948.278286	0.990255
948.579641	0.991735
948.880958	0.990970
949.182236	0.992166
949.483476	0.991711
949.784678	0.990790
950.085841	0.991142
950.386967	0.990922
950.688054	0.989856
950.989103	0.991706
951.290114	0.988240
951.591087	0.989144
951.892021	0.990191
952.192917	0.989276
952.493776	0.987320
952.794596	0.988503
953.095378	0.987351
953.396122	0.988213
953.696828	0.986714
953.997496	0.990390
954.298126	0.990517
954.598718	0.991341
954.899272	0.991317
955.199788	0.990423
955.500266	0.992209
955.800706	0.993181
956.101108	0.994082
956.401472	0.994304
956.701798	0.994352
957.002087	0.993581
957.302337	0.993839
957.602550	0.994594
957.902724	0.994336
958.202861	0.994182
958.502960	0.994771
958.803022	0.993841
959.103045	0.995451
959.403031	0.995294
959.702979	0.995393
960.002889	0.995825
960.302762	0.994855
960.602596	0.996277
960.902393	0.994148
961.202153	0.997301
961.501875	0.996962
961.801559	0.995251
962.101205	0.996459
962.400814	0.995894
962.700385	0.997170
962.999918	0.995569
963.299414	0.995498
963.598873	0.995815
963.898293	0.997273
964.197677	0.995909
964.497022	0.997606
964.796331	0.997796
965.095601	0.996481
965.394835	0.996113
965.694030	0.997459
965.993189	0.996703
966.292309	0.995640
966.591393	0.997152
966.890439	0.996819
967.189447	0.996405
967.488419	0.997512
967.787353	0.997457
968.086249	0.995928
968.385108	0.996613
968.683930	0.997773
968.982714	0.996665
969.281462	0.997007
969.580172	0.996005
969.878844	0.998768
970.177480	0.996086
970.476078	0.998237
970.774639	0.997149
971.073162	0.997179
971.371649	0.996243
971.670098	0.996087
971.968510	0.998066
972.266885	0.996844
972.565223	0.996455
972.863524	0.994570
973.161788	0.996132
973.460014	0.997624
973.758204	0.995032
974.056356	0.996756
974.354471	0.994543
974.652550	0.996584
974.950591	0.997357
975.248595	0.995957
975.546563	0.997115
975.844493	0.997657
976.142386	0.996917
976.440243	0.995947
976.738062	0.996305
977.035845	0.998513
977.333590	0.996486
977.631299	0.997310
977.928971	0.996701
978.226606	0.996911
978.524204	0.995971
978.821765	0.997619
979.119290	0.996792
979.416777	0.996710
979.714228	0.996894
980.011642	0.995699
980.309020	0.997424
980.606360	0.997008
980.903664	0.997224
981.200931	0.996827
981.498162	0.994941
981.795356	0.994400
982.092513	0.994222
982.389633	0.994694
982.686717	0.990994
982.983764	0.991470
983.280775	0.991735
983.577749	0.989447
983.874686	0.992071
984.171587	0.991421
984.468451	0.994158
984.765279	0.995699
985.062070	0.994514
985.358824	0.994564
985.655543	0.994484
985.952224	0.995959
986.248869	0.995735
986.545478	0.996824
986.842050	0.999214
987.138586	0.995876
987.435086	0.998111
987.731549	0.998346
988.027975	0.997286
988.324366	0.997857
988.620719	0.996656
988.917037	0.995887
989.213318	0.997478
989.509563	0.998436
989.805772	0.997502
990.101944	0.998969
990.398080	0.996760
990.694180	0.997376
990.990244	0.997725
991.286271	0.997936
991.582262	0.997783
991.878217	0.998289
992.174136	0.999529
992.470019	1.000026
992.765865	0.998919
993.061676	0.997946
993.357450	0.997635
993.653188	0.996391
993.948890	0.997277
994.244556	0.997457
994.540186	0.997274
994.835780	0.997341
995.131337	0.996794
995.426859	0.997145
995.722345	0.997362
996.017795	0.996991
996.313208	0.996431
996.608586	0.996535
996.903928	0.996906
997.199234	0.995774
997.494504	0.997247
997.789738	0.996198
998.084936	0.997126
998.380099	0.997932
998.675225	0.997817
998.970316	0.999164
999.265371	0.997840
999.560390	0.997938
999.855373	0.999042
1000.150320	0.997795
1000.445232	0.998633
1000.740108	0.997990
1001.034948	0.999135
1001.329752	0.998914
1001.624521	0.997778
1001.919254	0.997773
1002.213951	0.996557
1002.508613	0.999231
1002.803239	0.999307
1003.097829	0.998584
1003.392384	0.998651
1003.686903	0.997885
1003.981386	0.999684
1004.275834	1.000346
1004.570246	0.998289
1004.864623	0.999531
1005.158964	1.000486
1005.453270	0.998801
1005.747540	0.997758
1006.041775	0.998803
1006.335974	0.998941
1006.630138	0.999385
1006.924266	0.999025
1007.218359	1.000250
1007.512416	0.999379
1007.806438	0.998110
1008.100425	0.999109
1008.394376	0.998691
1008.688292	0.999082
1008.982172	1.000404
1009.276017	0.999925
1009.569827	0.999075
1009.863602	0.998803
1010.157341	1.000221
1010.451045	0.999762
1010.744714	0.998435
1011.038347	0.999770
1011.331945	0.999148
1011.625508	0.997898
1011.919036	0.997974
1012.212528	0.998786
1012.505986	0.998207
1012.799408	0.997954
1013.092795	1.000388
1013.386147	0.999315
1013.679464	0.998967
1013.972745	0.998448
1014.265992	0.997782
1014.559204	0.998633
1014.852380	0.998313
1015.145521	0.999497
1015.438628	0.998804
1015.731699	0.999785
1016.024736	0.997770
1016.317737	0.998344
1016.610703	0.998526
1016.903635	1.000193
1017.196531	0.998894
1017.489393	0.999648
1017.782219	0.998918
1018.075011	0.999013
1018.367768	0.999300
1018.660490	0.998758
1018.953177	0.998758
1019.245829	0.998758
