Dividing Wavelength (nm)	Counts (n)	Blue Motor Position (mm): 0.000000	Red Motor Position (mm): 19.700000	
326.493990	1.002014
326.888308	1.002014
327.282561	1.002014
327.676750	1.000644
328.070874	1.000171
328.464933	0.999935
328.858929	1.001552
329.252859	1.000329
329.646726	0.999680
330.040528	1.000682
330.434265	0.999968
330.827938	1.000985
331.221547	1.000600
331.615091	0.999953
332.008571	1.000419
332.401986	0.999683
332.795338	1.000494
333.188625	0.999097
333.581847	1.001176
333.975006	0.999684
334.368100	1.000184
334.761129	1.001062
335.154095	1.001644
335.546996	0.998031
335.939833	0.993475
336.332606	0.994438
336.725315	0.995411
337.117960	0.995958
337.510540	0.995083
337.903056	0.995395
338.295508	0.994223
338.687896	0.994553
339.080220	0.994456
339.472480	0.994177
339.864676	0.994618
340.256807	0.994752
340.648875	0.996303
341.040879	0.994489
341.432818	0.994705
341.824694	0.994445
342.216506	0.995670
342.608253	0.994207
342.999937	0.993495
343.391557	0.994547
343.783113	0.994448
344.174605	0.994987
344.566033	0.994672
344.957397	0.993877
345.348697	0.994127
345.739934	0.993620
346.131106	0.993839
346.522215	0.994008
346.913260	0.993491
347.304241	0.994953
347.695159	0.995040
348.086012	0.992731
348.476802	0.993701
348.867528	0.994265
349.258191	0.993931
349.648789	0.995109
350.039324	0.993055
350.429796	0.995019
350.820203	0.994240
351.210548	0.994408
351.600828	0.995548
351.991045	0.995401
352.381198	0.994002
352.771288	0.994183
353.161314	0.993967
353.551276	0.995730
353.941175	0.993360
354.331010	0.994752
354.720782	0.994082
355.110490	0.994193
355.500135	0.995282
355.889717	0.994221
356.279235	0.994064
356.668689	0.994559
357.058080	0.994118
357.447408	0.994550
357.836672	0.994398
358.225873	0.994423
358.615010	0.993923
359.004084	0.996476
359.393095	0.994416
359.782043	0.995164
360.170927	0.995213
360.559748	0.994823
360.948505	0.994149
361.337199	0.994148
361.725830	0.995282
362.114398	0.994638
362.502903	0.994229
362.891344	0.994971
363.279722	0.993683
363.668037	0.994670
364.056289	0.993806
364.444478	0.994421
364.832603	0.993576
365.220665	0.994749
365.608665	0.994515
365.996601	0.994008
366.384474	0.994297
366.772284	0.994813
367.160031	0.993435
367.547715	0.992734
367.935336	0.994354
368.322893	0.993992
368.710388	0.993698
369.097820	0.993875
369.485189	0.994309
369.872495	0.994086
370.259738	0.993276
370.646918	0.995588
371.034035	0.995676
371.421090	0.996049
371.808081	0.994343
372.195010	0.994858
372.581875	0.993987
372.968678	0.994621
373.355418	0.994759
373.742096	0.994601
374.128710	0.995980
374.515262	0.994767
374.901751	0.994870
375.288177	0.995336
375.674540	0.994944
376.060841	0.994513
376.447079	0.995048
376.833254	0.994497
377.219367	0.994171
377.605417	0.994716
377.991404	0.994247
378.377329	0.994360
378.763191	0.994956
379.148991	0.995306
379.534727	0.995471
379.920402	0.995464
380.306013	0.994923
380.691563	0.995968
381.077049	0.994712
381.462474	0.995328
381.847835	0.994829
382.233134	0.994817
382.618371	0.994864
383.003545	0.994865
383.388657	0.994919
383.773706	0.996318
384.158693	0.995607
384.543618	0.994651
384.928480	0.996306
385.313280	0.994762
385.698017	0.995582
386.082692	0.995624
386.467305	0.995474
386.851856	0.995084
387.236344	0.995209
387.620770	0.994322
388.005133	0.996095
388.389435	0.995231
388.773674	0.995224
389.157851	0.994843
389.541965	0.995170
389.926018	0.994990
390.310008	0.995831
390.693936	0.995347
391.077802	0.995425
391.461606	0.995021
391.845348	0.995991
392.229027	0.996336
392.612645	0.995798
392.996200	0.996425
393.379694	0.994943
393.763125	0.996393
394.146494	0.995819
394.529801	0.994399
394.913047	0.997307
395.296230	0.995076
395.679351	0.996374
396.062410	0.995474
396.445408	0.994568
396.828343	0.994547
397.211217	0.994709
397.594028	0.996348
397.976778	0.994878
398.359466	0.994654
398.742092	0.994747
399.124656	0.994330
399.507158	0.994550
399.889598	0.995732
400.271977	0.995855
400.654294	0.994470
401.036549	0.995093
401.418742	0.996029
401.800874	0.994792
402.182944	0.994805
402.564952	0.993139
402.946898	0.995600
403.328783	0.995147
403.710606	0.995161
404.092367	0.995019
404.474067	0.995303
404.855705	0.995148
405.237282	0.994868
405.618797	0.994602
406.000250	0.994544
406.381642	0.995395
406.762972	0.993888
407.144240	0.994804
407.525447	0.994061
407.906593	0.993336
408.287677	0.993101
408.668700	0.993644
409.049661	0.991791
409.430560	0.991506
409.811399	0.989855
410.192176	0.989054
410.572891	0.988305
410.953545	0.986773
411.334138	0.985419
411.714669	0.984823
412.095139	0.982877
412.475547	0.982334
412.855894	0.979007
413.236180	0.977410
413.616405	0.975475
413.996568	0.972618
414.376670	0.969980
414.756711	0.966881
415.136691	0.964395
415.516609	0.960227
415.896466	0.956845
416.276262	0.952047
416.655997	0.949553
417.035670	0.943153
417.415283	0.938378
417.794834	0.935217
418.174324	0.931440
418.553753	0.927792
418.933121	0.919549
419.312428	0.913880
419.691674	0.909491
420.070859	0.901728
420.449983	0.897217
420.829045	0.888524
421.208047	0.884944
421.586988	0.877753
421.965867	0.868763
422.344686	0.858563
422.723444	0.854905
423.102141	0.853060
423.480777	0.837591
423.859352	0.835665
424.237866	0.819710
424.616319	0.812716
424.994712	0.801059
425.373044	0.797218
425.751314	0.783214
426.129524	0.780648
426.507673	0.765746
426.885762	0.755609
427.263789	0.747495
427.641756	0.744881
428.019662	0.730335
428.397508	0.720549
428.775292	0.713066
429.153016	0.700203
429.530679	0.695698
429.908282	0.683185
430.285824	0.680463
430.663305	0.658341
431.040726	0.661777
431.418086	0.655825
431.795385	0.641227
432.172624	0.631797
432.549802	0.624413
432.926920	0.616151
433.303977	0.607751
433.680974	0.598431
434.057910	0.589146
434.434786	0.581836
434.811601	0.576473
435.188355	0.556627
435.565050	0.557262
435.941683	0.551526
436.318257	0.532963
436.694770	0.525964
437.071222	0.519125
437.447614	0.516695
437.823946	0.516428
438.200218	0.501603
438.576429	0.504932
438.952580	0.494242
439.328670	0.486192
439.704700	0.488124
440.080670	0.484895
440.456580	0.463334
440.832429	0.466271
441.208218	0.473195
441.583947	0.459621
441.959616	0.455967
442.335224	0.457357
442.710773	0.446069
443.086261	0.441243
443.461689	0.452318
443.837057	0.439875
444.212365	0.428039
444.587612	0.432734
444.962800	0.421066
445.337927	0.420726
445.712995	0.445079
446.088002	0.406681
446.462949	0.415439
446.837837	0.418609
447.212664	0.406879
447.587431	0.397613
447.962139	0.367519
448.336786	0.326714
448.711374	0.336219
449.085901	0.378586
449.460369	0.382354
449.834776	0.384864
450.209124	0.364221
450.583412	0.356092
450.957640	0.348718
451.331808	0.359624
451.705917	0.382471
452.079965	0.387369
452.453954	0.374925
452.827883	0.381348
453.201752	0.376201
453.575562	0.387642
453.949311	0.375779
454.323001	0.381160
454.696632	0.376930
455.070202	0.369832
455.443713	0.361638
455.817164	0.356245
456.190556	0.352459
456.563888	0.348647
456.937160	0.346236
457.310373	0.363625
457.683526	0.362257
458.056619	0.367755
458.429653	0.368026
458.802628	0.371776
459.175542	0.365688
459.548398	0.348317
459.921194	0.340937
460.293930	0.340794
460.666607	0.318353
461.039224	0.306910
461.411782	0.302299
461.784280	0.301824
462.156719	0.305903
462.529099	0.310248
462.901419	0.325883
463.273680	0.330649
463.645882	0.330432
464.018024	0.335898
464.390106	0.328941
464.762130	0.313524
465.134094	0.296656
465.505999	0.265799
465.877845	0.236418
466.249631	0.223660
466.621358	0.230915
466.993026	0.244929
467.364634	0.251067
467.736184	0.259878
468.107674	0.268208
468.479105	0.267456
468.850477	0.274203
469.221790	0.280998
469.593043	0.291066
469.964238	0.296234
470.335373	0.295229
470.706449	0.293703
471.077467	0.294271
471.448425	0.256468
471.819324	0.232225
472.190164	0.231532
472.560945	0.260548
472.931667	0.281983
473.302330	0.286516
473.672934	0.297921
474.043479	0.286360
474.413965	0.288345
474.784393	0.291735
475.154761	0.287013
475.525070	0.283881
475.895321	0.289732
476.265513	0.284149
476.635645	0.279592
477.005719	0.279417
477.375734	0.275897
477.745691	0.269448
478.115588	0.266013
478.485427	0.259505
478.855207	0.245842
479.224928	0.228998
479.594591	0.217054
479.964194	0.220508
480.333739	0.221705
480.703226	0.223089
481.072653	0.221706
481.442022	0.217431
481.811333	0.213816
482.180584	0.217088
482.549777	0.222625
482.918912	0.225912
483.287988	0.225608
483.657005	0.225246
484.025964	0.231741
484.394864	0.228927
484.763706	0.229818
485.132489	0.234603
485.501213	0.235601
485.869879	0.233726
486.238487	0.236769
486.607036	0.234704
486.975527	0.239127
487.343959	0.235295
487.712333	0.234322
488.080648	0.235640
488.448905	0.234800
488.817104	0.236006
489.185244	0.230358
489.553326	0.227644
489.921350	0.217508
490.289315	0.199918
490.657222	0.194786
491.025070	0.196307
491.392861	0.198104
491.760593	0.203633
492.128267	0.209408
492.495883	0.214790
492.863440	0.221031
493.230939	0.227270
493.598380	0.228554
493.965763	0.230951
494.333088	0.233192
494.700354	0.234701
495.067563	0.233484
495.434713	0.236892
495.801805	0.234646
496.168839	0.235918
496.535815	0.237451
496.902733	0.237628
497.269593	0.238924
497.636395	0.236643
498.003139	0.237180
498.369825	0.239987
498.736453	0.236697
499.103023	0.238129
499.469535	0.237348
499.835989	0.237602
500.202385	0.238350
500.568723	0.241611
500.935003	0.236767
501.301226	0.241420
501.667390	0.235531
502.033497	0.233626
502.399546	0.236580
502.765537	0.238307
503.131470	0.236995
503.497345	0.233039
503.863163	0.241988
504.228923	0.234975
504.594625	0.233702
504.960269	0.239046
505.325856	0.234378
505.691385	0.238745
506.056856	0.235162
506.422270	0.234639
506.787625	0.237168
507.152924	0.234692
507.518164	0.235370
507.883347	0.236739
508.248472	0.238362
508.613540	0.233859
508.978550	0.236172
509.343503	0.236594
509.708398	0.234180
510.073236	0.231918
510.438016	0.231840
510.802738	0.232872
511.167403	0.231745
511.532010	0.233826
511.896561	0.229122
512.261053	0.227838
512.625488	0.230173
512.989866	0.230088
513.354186	0.230540
513.718449	0.232664
514.082655	0.228946
514.446803	0.231001
514.810894	0.228913
515.174927	0.231239
515.538904	0.230609
515.902822	0.227710
516.266684	0.230247
516.630488	0.231315
516.994235	0.230103
517.357925	0.228961
517.721558	0.227270
518.085133	0.226760
518.448651	0.226979
518.812112	0.228931
519.175516	0.228711
519.538863	0.226268
519.902152	0.228071
520.265385	0.224814
520.628560	0.226454
520.991678	0.227139
521.354739	0.225862
521.717743	0.227271
522.080690	0.227754
522.443580	0.224804
522.806413	0.225716
523.169189	0.224912
523.531908	0.224184
523.894569	0.227500
524.257174	0.227560
524.619722	0.225086
524.982213	0.226581
525.344647	0.225071
525.707025	0.226079
526.069345	0.224130
526.431608	0.226069
526.793815	0.223926
527.155964	0.227940
527.518057	0.227095
527.880093	0.228009
528.242072	0.226534
528.603995	0.228527
528.965860	0.230511
529.327669	0.228727
529.689421	0.229856
530.051117	0.230686
530.412755	0.228553
530.774337	0.230661
531.135862	0.231403
531.497331	0.230556
531.858743	0.233435
532.220098	0.230270
532.581396	0.232447
532.942638	0.233303
533.303824	0.234023
533.664953	0.233781
534.026025	0.235597
534.387040	0.233452
534.747999	0.233411
535.108902	0.232319
535.469748	0.237359
535.830537	0.234745
536.191270	0.235463
536.551947	0.235210
536.912567	0.234990
537.273131	0.236864
537.633638	0.237039
537.994089	0.237479
538.354483	0.238341
538.714821	0.235218
539.075103	0.235398
539.435328	0.236082
539.795497	0.239890
540.155609	0.236158
540.515665	0.234487
540.875665	0.239924
541.235609	0.238710
541.595496	0.238839
541.955328	0.235056
542.315102	0.237653
542.674821	0.239030
543.034483	0.238881
543.394090	0.238857
543.753640	0.240385
544.113134	0.235535
544.472571	0.238787
544.831953	0.235796
545.191278	0.239850
545.550548	0.239242
545.909761	0.236224
546.268918	0.236896
546.628019	0.235042
546.987064	0.237899
547.346053	0.239700
547.704986	0.237364
548.063863	0.237827
548.422684	0.237941
548.781449	0.239922
549.140158	0.237440
549.498811	0.240467
549.857408	0.243459
550.215949	0.238192
550.574434	0.241254
550.932864	0.239079
551.291237	0.237912
551.649555	0.239237
552.007817	0.239037
552.366022	0.239823
552.724173	0.239928
553.082267	0.240534
553.440305	0.237334
553.798288	0.241622
554.156215	0.238365
554.514086	0.238855
554.871902	0.242190
555.229661	0.241392
555.587365	0.241910
555.945014	0.244407
556.302606	0.241339
556.660143	0.243855
557.017625	0.240275
557.375050	0.242499
557.732421	0.239636
558.089735	0.241317
558.446994	0.241759
558.804197	0.240709
559.161345	0.240757
559.518437	0.244196
559.875474	0.241823
560.232455	0.241337
560.589381	0.242485
560.946251	0.242695
561.303065	0.240157
561.659825	0.241415
562.016528	0.243097
562.373177	0.245817
562.729770	0.243418
563.086307	0.245217
563.442789	0.243215
563.799216	0.245812
564.155587	0.244792
564.511904	0.245700
564.868164	0.245756
565.224370	0.246179
565.580520	0.247595
565.936615	0.247293
566.292654	0.250343
566.648638	0.247282
567.004567	0.248391
567.360441	0.249089
567.716260	0.250599
568.072023	0.248715
568.427732	0.249521
568.783385	0.251909
569.138982	0.249710
569.494525	0.249398
569.850013	0.252385
570.205445	0.251065
570.560823	0.253392
570.916145	0.255318
571.271412	0.253588
571.626625	0.254994
571.981782	0.255595
572.336884	0.256411
572.691931	0.256114
573.046923	0.257266
573.401860	0.258546
573.756743	0.260164
574.111570	0.259071
574.466342	0.259882
574.821059	0.258870
575.175722	0.261588
575.530330	0.261332
575.884882	0.261553
576.239380	0.263500
576.593823	0.264030
576.948211	0.263602
577.302544	0.267098
577.656823	0.266563
578.011047	0.266623
578.365216	0.267148
578.719330	0.269122
579.073389	0.269070
579.427394	0.270413
579.781344	0.270812
580.135239	0.272355
580.489080	0.272002
580.842866	0.275143
581.196597	0.275205
581.550273	0.273582
581.903895	0.274842
582.257463	0.272871
582.610975	0.276206
582.964434	0.275757
583.317837	0.278178
583.671186	0.278360
584.024481	0.278401
584.377721	0.280782
584.730906	0.281743
585.084037	0.280672
585.437113	0.282808
585.790135	0.282358
586.143103	0.284711
586.496016	0.286023
586.848874	0.283672
587.201679	0.284191
587.554428	0.287969
587.907124	0.286369
588.259765	0.287096
588.612352	0.287426
588.964884	0.291237
589.317362	0.290953
589.669786	0.290672
590.022155	0.289544
590.374470	0.288675
590.726731	0.290754
591.078937	0.295370
591.431090	0.291670
591.783188	0.296160
592.135232	0.296462
592.487222	0.296664
592.839157	0.294705
593.191038	0.296959
593.542866	0.298571
593.894639	0.302465
594.246358	0.300570
594.598022	0.299861
594.949633	0.303611
595.301190	0.304186
595.652692	0.303222
596.004141	0.299701
596.355535	0.307629
596.706876	0.307745
597.058162	0.310472
597.409395	0.307941
597.760573	0.305609
598.111698	0.308449
598.462768	0.309013
598.813785	0.310237
599.164748	0.311804
599.515657	0.312028
599.866511	0.314954
600.217312	0.310393
600.568060	0.316006
600.918753	0.312127
601.269392	0.313301
601.619978	0.316690
601.970510	0.314032
602.320988	0.314226
602.671412	0.312176
603.021783	0.314409
603.372100	0.315960
603.722363	0.315736
604.072572	0.316637
604.422728	0.316364
604.772830	0.318019
605.122878	0.317969
605.472872	0.318373
605.822813	0.316677
606.172701	0.319699
606.522534	0.316779
606.872314	0.316831
607.222041	0.317588
607.571714	0.316033
607.921333	0.317240
608.270899	0.316821
608.620411	0.313815
608.969870	0.317712
609.319276	0.317597
609.668627	0.317449
610.017926	0.316319
610.367171	0.314461
610.716362	0.315605
611.065500	0.315323
611.414585	0.314415
611.763616	0.315027
612.112594	0.315446
612.461518	0.314606
612.810389	0.312463
613.159207	0.314867
613.507971	0.316649
613.856682	0.312261
614.205340	0.314019
614.553945	0.310765
614.902496	0.314856
615.250994	0.312857
615.599439	0.313351
615.947830	0.312508
616.296169	0.313734
616.644454	0.313165
616.992686	0.313022
617.340864	0.311107
617.688990	0.314863
618.037063	0.311349
618.385082	0.313359
618.733048	0.310402
619.080961	0.312430
619.428821	0.311640
619.776628	0.311526
620.124382	0.313425
620.472083	0.313486
620.819731	0.313089
621.167326	0.317008
621.514868	0.316822
621.862357	0.320824
622.209793	0.320698
622.557176	0.322669
622.904506	0.324019
623.251783	0.326285
623.599007	0.328341
623.946179	0.328000
624.293297	0.330094
624.640363	0.333393
624.987376	0.334294
625.334336	0.336800
625.681243	0.339122
626.028097	0.339624
626.374899	0.341198
626.721647	0.341132
627.068343	0.344656
627.414987	0.345462
627.761577	0.347535
628.108115	0.345854
628.454600	0.350919
628.801032	0.347978
629.147412	0.350564
629.493739	0.351102
629.840014	0.353882
630.186236	0.351151
630.532405	0.356512
630.878521	0.354357
631.224585	0.356599
631.570597	0.359975
631.916556	0.358036
632.262462	0.358969
632.608316	0.360869
632.954117	0.361549
633.299866	0.362299
633.645562	0.362847
633.991206	0.366875
634.336797	0.370151
634.682336	0.371995
635.027823	0.373812
635.373257	0.374576
635.718639	0.377909
636.063968	0.376948
636.409245	0.382908
636.754470	0.383201
637.099642	0.386035
637.444762	0.389019
637.789829	0.388450
638.134845	0.391486
638.479808	0.392964
638.824719	0.392227
639.169577	0.396597
639.514383	0.395211
639.859137	0.399936
640.203839	0.399093
640.548489	0.400148
640.893086	0.401479
641.237632	0.402866
641.582125	0.401644
641.926566	0.403228
642.270955	0.402966
642.615292	0.403490
642.959576	0.402918
643.303809	0.403294
643.647990	0.402997
643.992118	0.403237
644.336195	0.407333
644.680219	0.405001
645.024192	0.406082
645.368112	0.399244
645.711981	0.399013
646.055797	0.393676
646.399562	0.396245
646.743274	0.388500
647.086935	0.385523
647.430544	0.386116
647.774101	0.384979
648.117606	0.383735
648.461059	0.384568
648.804460	0.386950
649.147810	0.392238
649.491108	0.393997
649.834354	0.395553
650.177548	0.400920
650.520690	0.406333
650.863781	0.407631
651.206820	0.406627
651.549807	0.411384
651.892742	0.415416
652.235626	0.414920
652.578458	0.416113
652.921238	0.421602
653.263967	0.419690
653.606644	0.424057
653.949269	0.423214
654.291843	0.427529
654.634365	0.424064
654.976836	0.427109
655.319255	0.427469
655.661622	0.428983
656.003938	0.429559
656.346203	0.432234
656.688416	0.430378
657.030577	0.433403
657.372687	0.435505
657.714746	0.436127
658.056753	0.433094
658.398708	0.436742
658.740612	0.438000
659.082465	0.434258
659.424266	0.434692
659.766016	0.434509
660.107715	0.436519
660.449362	0.435676
660.790958	0.436606
661.132503	0.436727
661.473996	0.434878
661.815438	0.435534
662.156829	0.435706
662.498168	0.436359
662.839456	0.438130
663.180693	0.435858
663.521879	0.436065
663.863013	0.436516
664.204097	0.434899
664.545129	0.431637
664.886110	0.432510
665.227040	0.429598
665.567918	0.432484
665.908746	0.430805
666.249522	0.429494
666.590248	0.430880
666.930922	0.429068
667.271545	0.427664
667.612118	0.428189
667.952639	0.429623
668.293109	0.428336
668.633528	0.431222
668.973896	0.431407
669.314213	0.431510
669.654480	0.432972
669.994695	0.433342
670.334859	0.434235
670.674973	0.434424
671.015035	0.434905
671.355047	0.434689
671.695008	0.435935
672.034918	0.437177
672.374777	0.436896
672.714585	0.438187
673.054342	0.438174
673.394049	0.438037
673.733705	0.435974
674.073310	0.436898
674.412864	0.439618
674.752368	0.440178
675.091820	0.440332
675.431223	0.444911
675.770574	0.444826
676.109875	0.447851
676.449125	0.447883
676.788324	0.450085
677.127473	0.455674
677.466571	0.455282
677.805619	0.456372
678.144616	0.457820
678.483562	0.459499
678.822458	0.462442
679.161303	0.463638
679.500098	0.463364
679.838842	0.465071
680.177535	0.464954
680.516179	0.463372
680.854771	0.462295
681.193314	0.455974
681.531805	0.447134
681.870247	0.435477
682.208638	0.428071
682.546978	0.427322
682.885268	0.428675
683.223508	0.434801
683.561697	0.438822
683.899836	0.441615
684.237925	0.444975
684.575963	0.447314
684.913951	0.450232
685.251889	0.446517
685.589776	0.448485
685.927614	0.450594
686.265401	0.444953
686.603137	0.446215
686.940824	0.440229
687.278460	0.438979
687.616046	0.438011
687.953582	0.433066
688.291068	0.434359
688.628504	0.429960
688.965889	0.432126
689.303224	0.436632
689.640510	0.439853
689.977745	0.445574
690.314930	0.454503
690.652065	0.458325
690.989150	0.466012
691.326185	0.472569
691.663170	0.476719
692.000105	0.484179
692.336990	0.490989
692.673825	0.493598
693.010610	0.500673
693.347345	0.505670
693.684030	0.507497
694.020665	0.512005
694.357251	0.521341
694.693786	0.520400
695.030272	0.524973
695.366707	0.528235
695.703093	0.532111
696.039429	0.529902
696.375716	0.531471
696.711952	0.534435
697.048139	0.536167
697.384276	0.538083
697.720363	0.536081
698.056400	0.535611
698.392388	0.540615
698.728326	0.543967
699.064214	0.546939
699.400053	0.547873
699.735842	0.550792
700.071581	0.553756
700.407270	0.556619
700.742910	0.559290
701.078501	0.566057
701.414042	0.565796
701.749533	0.569416
702.084974	0.577734
702.420366	0.569651
702.755709	0.578013
703.091002	0.585497
703.426246	0.578749
703.761440	0.585121
704.096584	0.589995
704.431679	0.587096
704.766725	0.588269
705.101721	0.590247
705.436668	0.586005
705.771565	0.593806
706.106413	0.590815
706.441212	0.584926
706.775961	0.583768
707.110661	0.587003
707.445311	0.583549
707.779913	0.580751
708.114465	0.579870
708.448967	0.576065
708.783421	0.567795
709.117825	0.562742
709.452180	0.562210
709.786485	0.556816
710.120742	0.546080
710.454949	0.548442
710.789107	0.540257
711.123216	0.531331
711.457275	0.532981
711.791286	0.524284
712.125247	0.522830
712.459159	0.533716
712.793023	0.526890
713.126837	0.530427
713.460602	0.530880
713.794318	0.540031
714.127985	0.539120
714.461602	0.548542
714.795171	0.552373
715.128691	0.559760
715.462162	0.567664
715.795584	0.572727
716.128957	0.575640
716.462281	0.582442
716.795556	0.586090
717.128782	0.590893
717.461960	0.601385
717.795088	0.599154
718.128167	0.605428
718.461198	0.614336
718.794180	0.614870
719.127113	0.617244
719.459997	0.621117
719.792833	0.626842
720.125619	0.628395
720.458357	0.634625
720.791046	0.633825
721.123686	0.637656
721.456278	0.644212
721.788821	0.641270
722.121315	0.645541
722.453761	0.649958
722.786158	0.647407
723.118506	0.644774
723.450805	0.651676
723.783056	0.648866
724.115259	0.645243
724.447412	0.644962
724.779518	0.646737
725.111574	0.645755
725.443582	0.641117
725.775542	0.642633
726.107453	0.635280
726.439315	0.635554
726.771129	0.633383
727.102895	0.627238
727.434612	0.619867
727.766281	0.617501
728.097901	0.617665
728.429473	0.616766
728.760996	0.615302
729.092471	0.615574
729.423897	0.618685
729.755276	0.617737
730.086606	0.617590
730.417887	0.612763
730.749120	0.604531
731.080305	0.594146
731.411442	0.591420
731.742530	0.595277
732.073570	0.594072
732.404562	0.587233
732.735506	0.587983
733.066401	0.592970
733.397249	0.602049
733.728048	0.613480
734.058798	0.625818
734.389501	0.636728
734.720156	0.645359
735.050762	0.654225
735.381320	0.655751
735.711831	0.664687
736.042293	0.669432
736.372707	0.664778
736.703073	0.670087
737.033391	0.672658
737.363661	0.668064
737.693883	0.664147
738.024056	0.663143
738.354182	0.664100
738.684260	0.652566
739.014290	0.649512
739.344272	0.649743
739.674207	0.643136
740.004093	0.642401
740.333931	0.642381
740.663722	0.643025
740.993464	0.643565
741.323159	0.647287
741.652806	0.652361
741.982405	0.656777
742.311956	0.661662
742.641460	0.663488
742.970915	0.667380
743.300323	0.675141
743.629683	0.681835
743.958996	0.683624
744.288260	0.688126
744.617477	0.694663
744.946647	0.695811
745.275768	0.701120
745.604842	0.700670
745.933869	0.710686
746.262847	0.711417
746.591778	0.705415
746.920662	0.711339
747.249498	0.717100
747.578286	0.708044
747.907027	0.704407
748.235720	0.706014
748.564365	0.700394
748.892963	0.700500
749.221514	0.702959
749.550017	0.708848
749.878473	0.708627
750.206881	0.714038
750.535242	0.715770
750.863555	0.714530
751.191821	0.716079
751.520039	0.719567
751.848210	0.724455
752.176334	0.716788
752.504411	0.716071
752.832440	0.723914
753.160421	0.727757
753.488356	0.726183
753.816243	0.723682
754.144082	0.732017
754.471875	0.736297
754.799620	0.730638
755.127318	0.733327
755.454969	0.732187
755.782572	0.732203
756.110129	0.737006
756.437638	0.739064
756.765100	0.736316
757.092515	0.734076
757.419882	0.733253
757.747203	0.738056
758.074477	0.737802
758.401703	0.734229
758.728882	0.729124
759.056014	0.729090
759.383099	0.727335
759.710138	0.728756
760.037129	0.725084
760.364073	0.718913
760.690970	0.720796
761.017820	0.728297
761.344623	0.722054
761.671379	0.713255
761.998088	0.702615
762.324751	0.679764
762.651366	0.638090
762.977935	0.570985
763.304456	0.519185
763.630931	0.509601
763.957359	0.548339
764.283740	0.593045
764.610074	0.619532
764.936362	0.651239
765.262602	0.677786
765.588796	0.699091
765.914943	0.717810
766.241044	0.734352
766.567097	0.741428
766.893104	0.750389
767.219064	0.756916
767.544978	0.764930
767.870845	0.777149
768.196665	0.781134
768.522438	0.779830
768.848165	0.780799
769.173846	0.790220
769.499479	0.793916
769.825066	0.797581
770.150607	0.802644
770.476101	0.797609
770.801548	0.798749
771.126949	0.810648
771.452303	0.813725
771.777611	0.813417
772.102872	0.812951
772.428087	0.818318
772.753256	0.820250
773.078378	0.823969
773.403453	0.831381
773.728482	0.837477
774.053465	0.829811
774.378401	0.833836
774.703291	0.842192
775.028135	0.840701
775.352932	0.843115
775.677683	0.845548
776.002388	0.846381
776.327046	0.845336
776.651658	0.849039
776.976224	0.852917
777.300743	0.853754
777.625216	0.854582
777.949643	0.856521
778.274024	0.856908
778.598359	0.857777
778.922647	0.857108
779.246889	0.857008
779.571086	0.862307
779.895236	0.863303
780.219339	0.862055
780.543397	0.858137
780.867409	0.856588
781.191374	0.858640
781.515294	0.860403
781.839167	0.858940
782.162995	0.862452
782.486776	0.860248
782.810511	0.859835
783.134201	0.864638
783.457844	0.861483
783.781441	0.864945
784.104993	0.870224
784.428498	0.870056
784.751958	0.866784
785.075372	0.868768
785.398739	0.872690
785.722061	0.868871
786.045337	0.864545
786.368568	0.869313
786.691752	0.872097
787.014891	0.857205
787.337983	0.848455
787.661030	0.841501
787.984031	0.824072
788.306987	0.810178
788.629897	0.812337
788.952760	0.816026
789.275579	0.820925
789.598351	0.836442
789.921078	0.849463
790.243759	0.851630
790.566395	0.856991
790.888984	0.863663
791.211529	0.868388
791.534027	0.871734
791.856480	0.874099
792.178888	0.879575
792.501249	0.881704
792.823566	0.883361
793.145836	0.882631
793.468062	0.884689
793.790241	0.884699
794.112375	0.882768
794.434464	0.878523
794.756507	0.878041
795.078505	0.876889
795.400457	0.872497
795.722364	0.861106
796.044226	0.851258
796.366042	0.851585
796.687812	0.855477
797.009538	0.851486
797.331218	0.854231
797.652852	0.859976
797.974442	0.862847
798.295986	0.863719
798.617484	0.867207
798.938938	0.870878
799.260346	0.875208
799.581709	0.877584
799.903026	0.880494
800.224299	0.880590
800.545526	0.885222
800.866708	0.888260
801.187845	0.892106
801.508936	0.892951
801.829983	0.889670
802.150984	0.892852
802.471940	0.897239
802.792851	0.897429
803.113717	0.897891
803.434538	0.896857
803.755314	0.898397
804.076045	0.900315
804.396731	0.900098
804.717372	0.899599
805.037967	0.902477
805.358518	0.899559
805.679024	0.897264
805.999485	0.897190
806.319901	0.897595
806.640272	0.898520
806.960598	0.896727
807.280879	0.893241
807.601115	0.891322
807.921306	0.895522
808.241453	0.895823
808.561554	0.893740
808.881611	0.894340
809.201623	0.896627
809.521590	0.895856
809.841513	0.896538
810.161390	0.896289
810.481223	0.897284
810.801011	0.901460
811.120755	0.903434
811.440453	0.902111
811.760107	0.901209
812.079716	0.901344
812.399281	0.903406
812.718801	0.906673
813.038276	0.907382
813.357707	0.907270
813.677093	0.903287
813.996434	0.907686
814.315731	0.907917
814.634983	0.909736
814.954191	0.907427
815.273354	0.905610
815.592473	0.901590
815.911547	0.901867
816.230577	0.897997
816.549562	0.896257
816.868502	0.896936
817.187399	0.893626
817.506250	0.888050
817.825058	0.889711
818.143821	0.885718
818.462539	0.881312
818.781213	0.874074
819.099843	0.862493
819.418429	0.846177
819.736970	0.829994
820.055466	0.809455
820.373919	0.784679
820.692327	0.752089
821.010691	0.717049
821.329011	0.638998
821.647286	0.523915
821.965517	0.410043
822.283704	0.367371
822.601847	0.368931
822.919945	0.404917
823.237999	0.437725
823.556010	0.484376
823.873976	0.540983
824.191897	0.591424
824.509775	0.633242
824.827609	0.679113
825.145398	0.701186
825.463144	0.704716
825.780845	0.687369
826.098502	0.669191
826.416116	0.622759
826.733685	0.579479
827.051210	0.570422
827.368692	0.584997
827.686129	0.622784
828.003522	0.675321
828.320872	0.723282
828.638177	0.766309
828.955439	0.799609
829.272656	0.821753
829.589830	0.838470
829.906960	0.853803
830.224046	0.865638
830.541088	0.877759
830.858086	0.881366
831.175041	0.888347
831.491952	0.886704
831.808819	0.884164
832.125642	0.876768
832.442421	0.862228
832.759157	0.840644
833.075849	0.793859
833.392497	0.730538
833.709101	0.689335
834.025662	0.699354
834.342179	0.730917
834.658653	0.770116
834.975083	0.805575
835.291469	0.832322
835.607811	0.854040
835.924110	0.870237
836.240366	0.887539
836.556578	0.901209
836.872746	0.909722
837.188871	0.916143
837.504952	0.920197
837.820990	0.923396
838.136984	0.926793
838.452935	0.930649
838.768842	0.931852
839.084706	0.925917
839.400526	0.900287
839.716303	0.859520
840.032037	0.836122
840.347727	0.840755
840.663373	0.857623
840.978977	0.879817
841.294537	0.901599
841.610054	0.918326
841.925527	0.926388
842.240957	0.933345
842.556344	0.939659
842.871687	0.946237
843.186987	0.950227
843.502244	0.948709
843.817458	0.952826
844.132629	0.955960
844.447756	0.960462
844.762840	0.960586
845.077881	0.960436
845.392879	0.959500
845.707833	0.963120
846.022745	0.964947
846.337613	0.965288
846.652438	0.966676
846.967221	0.965142
847.281960	0.964588
847.596656	0.968230
847.911309	0.966342
848.225919	0.967679
848.540485	0.968551
848.855009	0.969351
849.169490	0.967885
849.483928	0.968853
849.798323	0.969560
850.112675	0.969698
850.426984	0.969958
850.741251	0.969894
851.055474	0.970173
851.369654	0.967375
851.683792	0.969165
851.997887	0.969208
852.311938	0.971622
852.625947	0.970949
852.939914	0.968563
853.253837	0.969406
853.567718	0.970707
853.881555	0.970831
854.195350	0.967902
854.509103	0.970505
854.822812	0.969682
855.136479	0.970088
855.450103	0.970014
855.763685	0.967501
856.077224	0.968221
856.390720	0.971372
856.704173	0.970413
857.017584	0.968673
857.330953	0.967673
857.644278	0.969350
857.957561	0.969351
858.270802	0.968625
858.584000	0.968659
858.897155	0.967433
859.210268	0.967975
859.523339	0.968724
859.836367	0.970009
860.149352	0.970501
860.462295	0.969752
860.775195	0.969446
861.088054	0.969486
861.400869	0.969011
861.713642	0.969131
862.026373	0.970331
862.339062	0.970440
862.651708	0.968193
862.964312	0.967606
863.276873	0.970357
863.589392	0.968634
863.901869	0.966635
864.214303	0.964739
864.526696	0.964158
864.839045	0.963186
865.151353	0.962205
865.463619	0.962409
865.775842	0.962543
866.088023	0.962571
866.400162	0.962652
866.712258	0.961291
867.024313	0.963218
867.336325	0.963471
867.648296	0.963250
867.960224	0.962027
868.272110	0.962895
868.583954	0.964300
868.895755	0.964034
869.207515	0.961440
869.519233	0.959386
869.830909	0.961219
870.142542	0.962490
870.454134	0.961955
870.765684	0.960218
871.077191	0.958008
871.388657	0.960383
871.700081	0.957395
872.011463	0.958860
872.322803	0.959250
872.634101	0.956518
872.945357	0.954977
873.256571	0.953639
873.567744	0.953153
873.878874	0.952758
874.189963	0.952447
874.501010	0.952181
874.812015	0.949804
875.122979	0.951342
875.433900	0.954100
875.744780	0.953932
876.055618	0.951041
876.366415	0.949759
876.677169	0.949963
876.987882	0.952249
877.298554	0.951706
877.609183	0.947157
877.919771	0.945438
878.230317	0.944389
878.540822	0.940842
878.851285	0.935757
879.161707	0.927970
879.472087	0.914992
879.782425	0.898514
880.092722	0.865142
880.402977	0.812545
880.713191	0.752180
881.023363	0.693389
881.333494	0.659770
881.643583	0.631437
881.953631	0.631168
882.263637	0.660584
882.573602	0.699083
882.883526	0.724454
883.193408	0.747959
883.503248	0.770393
883.813048	0.798347
884.122806	0.827695
884.432522	0.851618
884.742197	0.870325
885.051831	0.881056
885.361424	0.891409
885.670975	0.902883
885.980485	0.913959
886.289954	0.920064
886.599382	0.924336
886.908768	0.929004
887.218113	0.934931
887.527417	0.940272
887.836680	0.942063
888.145901	0.943116
888.455082	0.946696
888.764221	0.950179
889.073319	0.952620
889.382376	0.953000
889.691392	0.953040
890.000366	0.953358
890.309300	0.953569
890.618193	0.952877
890.927044	0.952049
891.235855	0.951666
891.544625	0.951843
891.853353	0.952845
892.162041	0.949356
892.470687	0.942279
892.779293	0.938836
893.087858	0.934526
893.396381	0.928208
893.704864	0.913352
894.013306	0.889010
894.321707	0.864158
894.630068	0.848648
894.938387	0.843671
895.246665	0.844981
895.554903	0.858152
895.863100	0.870519
896.171256	0.887688
896.479371	0.906295
896.787446	0.919398
897.095480	0.925340
897.403473	0.928577
897.711425	0.932780
898.019336	0.940059
898.327207	0.942986
898.635038	0.946298
898.942827	0.945300
899.250576	0.948144
899.558284	0.952965
899.865952	0.953264
900.173579	0.955498
900.481165	0.955903
900.788711	0.960294
901.096216	0.961827
901.403681	0.960873
901.711105	0.964137
902.018489	0.963295
902.325832	0.961808
902.633135	0.962698
902.940397	0.955882
903.247619	0.944771
903.554800	0.919322
903.861941	0.879348
904.169041	0.843243
904.476101	0.826364
904.783121	0.826951
905.090100	0.843455
905.397039	0.864331
905.703938	0.887247
906.010796	0.906455
906.317614	0.922850
906.624391	0.934488
906.931129	0.944406
907.237826	0.952630
907.544483	0.959857
907.851099	0.963335
908.157675	0.967908
908.464211	0.970474
908.770707	0.973548
909.077163	0.974101
909.383578	0.975412
909.689954	0.974984
909.996289	0.977138
910.302584	0.978939
910.608839	0.978868
910.915054	0.978379
911.221229	0.978903
911.527363	0.976220
911.833458	0.977913
912.139513	0.977466
912.445527	0.975672
912.751502	0.973277
913.057436	0.971508
913.363331	0.970514
913.669186	0.966857
913.975000	0.961242
914.280775	0.956679
914.586510	0.948663
914.892205	0.935573
915.197859	0.914544
915.503475	0.887021
915.809050	0.867679
916.114585	0.861729
916.420081	0.858697
916.725536	0.855901
917.030952	0.864009
917.336328	0.877790
917.641665	0.891629
917.946961	0.908761
918.252218	0.919764
918.557435	0.927499
918.862612	0.937007
919.167750	0.942257
919.472848	0.946864
919.777906	0.953039
920.082925	0.958161
920.387904	0.962714
920.692843	0.963144
920.997743	0.963399
921.302603	0.968134
921.607423	0.969796
921.912204	0.972797
922.216946	0.972927
922.521647	0.973138
922.826310	0.974126
923.130932	0.977785
923.435516	0.978306
923.740059	0.979527
924.044564	0.979119
924.349028	0.981244
924.653454	0.983329
924.957840	0.985775
925.262186	0.984518
925.566493	0.983603
925.870761	0.985288
926.174989	0.987454
926.479178	0.988508
926.783328	0.987837
927.087438	0.988218
927.391509	0.987700
927.695541	0.990289
927.999533	0.990049
928.303486	0.989672
928.607400	0.991689
928.911275	0.989357
929.215110	0.990941
929.518906	0.990648
929.822663	0.989801
930.126381	0.991332
930.430060	0.991253
930.733699	0.990227
931.037299	0.989731
931.340861	0.991340
931.644383	0.990511
931.947866	0.990248
932.251309	0.990852
932.554714	0.990464
932.858080	0.990500
933.161407	0.991072
933.464694	0.992128
933.767943	0.989825
934.071153	0.992005
934.374323	0.991781
934.677455	0.991117
934.980548	0.992048
935.283602	0.990585
935.586617	0.992210
935.889593	0.991715
936.192530	0.990262
936.495428	0.991222
936.798287	0.991233
937.101108	0.990628
937.403890	0.990356
937.706632	0.988932
938.009336	0.986176
938.312002	0.985222
938.614628	0.986118
938.917216	0.984746
939.219765	0.981611
939.522275	0.982921
939.824747	0.983571
940.127179	0.982966
940.429573	0.984789
940.731929	0.983709
941.034246	0.984667
941.336524	0.985424
941.638763	0.986743
941.940964	0.986468
942.243126	0.986763
942.545250	0.987504
942.847335	0.989170
943.149381	0.987934
943.451389	0.987848
943.753359	0.988117
944.055290	0.990053
944.357182	0.989462
944.659036	0.989251
944.960851	0.990454
945.262628	0.990535
945.564367	0.990268
945.866067	0.989910
946.167729	0.990788
946.469352	0.990181
946.770937	0.989275
947.072484	0.990968
947.373992	0.990149
947.675462	0.989673
947.976893	0.990910
948.278286	0.991916
948.579641	0.991205
948.880958	0.991370
949.182236	0.990957
949.483476	0.991189
949.784678	0.991206
950.085841	0.990955
950.386967	0.990911
950.688054	0.991448
950.989103	0.992278
951.290114	0.989815
951.591087	0.990511
951.892021	0.990178
952.192917	0.989854
952.493776	0.988506
952.794596	0.988836
953.095378	0.987964
953.396122	0.988031
953.696828	0.987913
953.997496	0.990170
954.298126	0.991044
954.598718	0.991164
954.899272	0.991684
955.199788	0.990264
955.500266	0.992689
955.800706	0.991969
956.101108	0.994711
956.401472	0.993983
956.701798	0.995428
957.002087	0.992734
957.302337	0.995007
957.602550	0.995236
957.902724	0.994316
958.202861	0.995765
958.502960	0.995446
958.803022	0.993458
959.103045	0.997531
959.403031	0.995442
959.702979	0.996158
960.002889	0.995101
960.302762	0.995226
960.602596	0.996734
960.902393	0.995285
961.202153	0.996224
961.501875	0.995887
961.801559	0.995917
962.101205	0.995815
962.400814	0.995509
962.700385	0.995565
962.999918	0.997212
963.299414	0.995048
963.598873	0.996657
963.898293	0.995551
964.197677	0.997412
964.497022	0.996891
964.796331	0.997954
965.095601	0.996178
965.394835	0.997768
965.694030	0.996401
965.993189	0.998044
966.292309	0.996849
966.591393	0.997132
966.890439	0.997092
967.189447	0.996439
967.488419	0.997908
967.787353	0.996665
968.086249	0.996012
968.385108	0.998073
968.683930	0.996381
968.982714	0.997956
969.281462	0.997649
969.580172	0.996030
969.878844	0.998350
970.177480	0.996918
970.476078	0.997773
970.774639	0.997532
971.073162	0.998216
971.371649	0.996341
971.670098	0.996509
971.968510	0.996962
972.266885	0.996063
972.565223	0.996191
972.863524	0.995732
973.161788	0.996931
973.460014	0.997803
973.758204	0.995319
974.056356	0.997432
974.354471	0.995072
974.652550	0.996087
974.950591	0.996619
975.248595	0.995864
975.546563	0.997253
975.844493	0.998223
976.142386	0.996783
976.440243	0.997600
976.738062	0.997374
977.035845	0.997969
977.333590	0.996894
977.631299	0.996953
977.928971	0.996720
978.226606	0.996446
978.524204	0.996412
978.821765	0.998628
979.119290	0.996653
979.416777	0.996888
979.714228	0.999057
980.011642	0.996190
980.309020	0.997743
980.606360	0.995697
980.903664	0.998315
981.200931	0.995866
981.498162	0.995117
981.795356	0.994921
982.092513	0.994285
982.389633	0.994948
982.686717	0.991821
982.983764	0.991829
983.280775	0.990400
983.577749	0.990789
983.874686	0.990624
984.171587	0.991697
984.468451	0.994143
984.765279	0.993941
985.062070	0.994873
985.358824	0.995048
985.655543	0.995181
985.952224	0.995678
986.248869	0.996547
986.545478	0.996896
986.842050	0.997294
987.138586	0.996736
987.435086	0.997925
987.731549	0.998456
988.027975	0.998211
988.324366	0.998073
988.620719	0.998021
988.917037	0.995909
989.213318	0.998061
989.509563	0.999077
989.805772	0.998564
990.101944	0.998872
990.398080	0.997935
990.694180	0.997302
990.990244	0.997801
991.286271	0.998840
991.582262	0.998258
991.878217	0.998264
992.174136	0.998439
992.470019	0.998704
992.765865	0.998168
993.061676	0.997556
993.357450	0.997849
993.653188	0.997317
993.948890	0.998343
994.244556	0.998538
994.540186	0.998517
994.835780	0.996002
995.131337	0.998679
995.426859	0.995849
995.722345	0.997609
996.017795	0.997301
996.313208	0.995872
996.608586	0.995658
996.903928	0.995970
997.199234	0.996142
997.494504	0.996818
997.789738	0.996388
998.084936	0.996232
998.380099	0.997778
998.675225	0.997793
998.970316	0.999518
999.265371	0.999405
999.560390	0.998924
999.855373	0.999356
1000.150320	0.999384
1000.445232	0.998597
1000.740108	0.998270
1001.034948	0.998158
1001.329752	0.997612
1001.624521	0.999002
1001.919254	0.997422
1002.213951	0.997501
1002.508613	0.998280
1002.803239	1.000086
1003.097829	0.999976
1003.392384	0.999482
1003.686903	0.997437
1003.981386	0.999305
1004.275834	0.998446
1004.570246	0.999206
1004.864623	0.999328
1005.158964	0.999404
1005.453270	0.998530
1005.747540	0.998561
1006.041775	0.998365
1006.335974	0.999838
1006.630138	0.999550
1006.924266	1.000054
1007.218359	1.001586
1007.512416	0.999088
1007.806438	0.999833
1008.100425	0.999313
1008.394376	0.999970
1008.688292	0.999541
1008.982172	1.001611
1009.276017	0.999334
1009.569827	0.998251
1009.863602	0.998714
1010.157341	0.999921
1010.451045	0.999781
1010.744714	0.999385
1011.038347	0.999512
1011.331945	0.999053
1011.625508	0.997220
1011.919036	0.999839
1012.212528	0.999037
1012.505986	0.997399
1012.799408	0.998972
1013.092795	1.000546
1013.386147	0.999722
1013.679464	0.999086
1013.972745	0.998573
1014.265992	0.997516
1014.559204	0.999360
1014.852380	0.999660
1015.145521	0.999713
1015.438628	0.999099
1015.731699	0.999079
1016.024736	0.999807
1016.317737	0.998740
1016.610703	0.999331
1016.903635	0.998285
1017.196531	0.999591
1017.489393	0.999624
1017.782219	0.999603
1018.075011	0.998411
1018.367768	0.999079
1018.660490	0.999952
1018.953177	0.999952
1019.245829	0.999952
