Dividing Wavelength (nm)	Counts (n)	Blue Motor Position (mm): 0.000000	Red Motor Position (mm): 33.700000	
326.493990	1.000726
326.888308	1.000726
327.282561	1.000726
327.676750	0.999929
328.070874	0.999020
328.464933	1.000448
328.858929	0.999475
329.252859	0.999775
329.646726	0.997886
330.040528	0.999604
330.434265	0.999489
330.827938	1.001366
331.221547	0.999161
331.615091	0.999567
332.008571	0.999837
332.401986	1.000540
332.795338	0.999722
333.188625	0.999098
333.581847	1.001172
333.975006	0.999316
334.368100	0.999574
334.761129	0.999889
335.154095	1.001108
335.546996	0.998821
335.939833	0.996232
336.332606	0.996026
336.725315	0.996439
337.117960	0.997482
337.510540	0.997054
337.903056	0.997417
338.295508	0.994967
338.687896	0.996898
339.080220	0.996213
339.472480	0.996656
339.864676	0.994962
340.256807	0.996469
340.648875	0.996789
341.040879	0.996624
341.432818	0.996250
341.824694	0.996382
342.216506	0.997345
342.608253	0.996610
342.999937	0.995911
343.391557	0.995817
343.783113	0.995503
344.174605	0.996441
344.566033	0.997120
344.957397	0.995509
345.348697	0.995607
345.739934	0.995342
346.131106	0.996756
346.522215	0.996185
346.913260	0.995678
347.304241	0.995881
347.695159	0.996512
348.086012	0.995370
348.476802	0.996102
348.867528	0.996545
349.258191	0.995502
349.648789	0.997760
350.039324	0.995456
350.429796	0.997201
350.820203	0.996161
351.210548	0.995967
351.600828	0.995940
351.991045	0.996723
352.381198	0.994663
352.771288	0.996600
353.161314	0.996665
353.551276	0.997026
353.941175	0.996356
354.331010	0.995499
354.720782	0.996302
355.110490	0.996054
355.500135	0.997049
355.889717	0.996461
356.279235	0.996250
356.668689	0.995731
357.058080	0.996024
357.447408	0.997330
357.836672	0.996339
358.225873	0.997528
358.615010	0.996351
359.004084	0.997941
359.393095	0.997014
359.782043	0.997234
360.170927	0.997603
360.559748	0.996800
360.948505	0.995963
361.337199	0.996656
361.725830	0.994999
362.114398	0.997496
362.502903	0.997966
362.891344	0.997349
363.279722	0.995737
363.668037	0.996311
364.056289	0.995800
364.444478	0.996907
364.832603	0.997425
365.220665	0.995139
365.608665	0.996012
365.996601	0.996448
366.384474	0.997623
366.772284	0.997741
367.160031	0.994939
367.547715	0.994977
367.935336	0.996829
368.322893	0.996706
368.710388	0.996072
369.097820	0.996040
369.485189	0.995691
369.872495	0.996111
370.259738	0.994972
370.646918	0.997582
371.034035	0.997403
371.421090	0.996573
371.808081	0.996818
372.195010	0.996548
372.581875	0.996042
372.968678	0.996086
373.355418	0.996466
373.742096	0.995817
374.128710	0.997359
374.515262	0.996634
374.901751	0.997189
375.288177	0.997203
375.674540	0.997410
376.060841	0.996094
376.447079	0.996993
376.833254	0.997672
377.219367	0.996256
377.605417	0.996599
377.991404	0.997291
378.377329	0.996306
378.763191	0.996563
379.148991	0.998178
379.534727	0.997785
379.920402	0.997191
380.306013	0.996968
380.691563	0.997279
381.077049	0.996389
381.462474	0.997338
381.847835	0.997356
382.233134	0.997101
382.618371	0.997652
383.003545	0.997542
383.388657	0.997240
383.773706	0.998364
384.158693	0.997655
384.543618	0.997548
384.928480	0.997886
385.313280	0.996956
385.698017	0.998388
386.082692	0.998492
386.467305	0.998243
386.851856	0.997286
387.236344	0.996994
387.620770	0.996988
388.005133	0.997870
388.389435	0.999097
388.773674	0.998006
389.157851	0.999062
389.541965	0.997841
389.926018	0.998064
390.310008	0.998895
390.693936	0.997674
391.077802	0.997546
391.461606	0.997655
391.845348	0.997664
392.229027	0.998545
392.612645	0.998034
392.996200	0.999248
393.379694	0.997723
393.763125	0.998945
394.146494	0.998875
394.529801	0.997516
394.913047	0.998151
395.296230	0.998349
395.679351	0.998684
396.062410	0.997251
396.445408	0.998327
396.828343	0.998152
397.211217	0.997963
397.594028	0.998672
397.976778	0.998203
398.359466	0.997241
398.742092	0.998032
399.124656	0.997697
399.507158	0.997063
399.889598	0.998509
400.271977	0.998500
400.654294	0.998838
401.036549	0.998293
401.418742	0.999431
401.800874	0.997962
402.182944	0.998493
402.564952	0.997136
402.946898	0.999148
403.328783	0.998192
403.710606	0.997815
404.092367	0.998466
404.474067	0.998800
404.855705	0.998919
405.237282	0.998683
405.618797	0.998003
406.000250	0.997783
406.381642	0.998594
406.762972	0.998178
407.144240	0.998640
407.525447	0.999100
407.906593	0.998774
408.287677	0.998910
408.668700	0.999134
409.049661	0.998155
409.430560	0.999018
409.811399	0.998340
410.192176	0.998722
410.572891	0.998343
410.953545	0.998408
411.334138	0.996863
411.714669	0.998800
412.095139	0.997882
412.475547	0.999513
412.855894	0.998554
413.236180	0.998777
413.616405	0.998904
413.996568	0.999508
414.376670	0.997959
414.756711	0.998425
415.136691	0.998659
415.516609	0.998292
415.896466	0.998455
416.276262	0.997882
416.655997	0.999041
417.035670	0.998185
417.415283	0.998728
417.794834	0.998897
418.174324	0.998681
418.553753	0.999276
418.933121	0.998735
419.312428	0.998320
419.691674	0.998186
420.070859	0.998952
420.449983	0.999116
420.829045	0.997894
421.208047	0.999594
421.586988	0.999928
421.965867	0.998103
422.344686	0.998900
422.723444	0.998973
423.102141	0.998922
423.480777	0.998342
423.859352	0.998967
424.237866	0.998144
424.616319	0.999007
424.994712	0.998372
425.373044	0.998827
425.751314	0.999035
426.129524	0.997700
426.507673	0.999031
426.885762	0.998825
427.263789	0.998881
427.641756	0.998757
428.019662	1.000260
428.397508	0.998413
428.775292	0.997908
429.153016	0.999359
429.530679	0.999287
429.908282	0.999343
430.285824	0.999154
430.663305	0.998821
431.040726	0.998406
431.418086	0.999508
431.795385	1.000203
432.172624	0.998170
432.549802	0.999249
432.926920	0.999907
433.303977	0.998382
433.680974	0.999469
434.057910	0.998618
434.434786	0.998655
434.811601	0.998531
435.188355	0.998443
435.565050	0.998350
435.941683	0.998899
436.318257	1.000686
436.694770	0.998820
437.071222	0.998878
437.447614	0.998851
437.823946	0.998905
438.200218	0.999467
438.576429	0.999246
438.952580	0.999006
439.328670	0.998533
439.704700	0.999688
440.080670	0.999153
440.456580	0.998474
440.832429	0.998150
441.208218	0.998808
441.583947	0.998713
441.959616	0.999606
442.335224	0.999043
442.710773	1.000477
443.086261	0.998732
443.461689	0.997744
443.837057	0.998722
444.212365	0.998563
444.587612	0.999224
444.962800	0.999132
445.337927	0.999163
445.712995	0.999199
446.088002	0.999313
446.462949	0.999497
446.837837	0.999594
447.212664	0.999291
447.587431	0.999261
447.962139	0.998573
448.336786	0.998968
448.711374	0.998708
449.085901	0.998684
449.460369	0.999634
449.834776	0.998803
450.209124	0.999696
450.583412	0.999402
450.957640	0.998995
451.331808	0.998263
451.705917	0.998754
452.079965	0.998614
452.453954	0.999013
452.827883	0.998893
453.201752	0.998994
453.575562	0.999761
453.949311	0.999697
454.323001	0.998851
454.696632	0.998035
455.070202	0.998619
455.443713	0.998393
455.817164	0.999077
456.190556	0.998890
456.563888	0.998677
456.937160	0.999461
457.310373	0.998554
457.683526	0.998889
458.056619	0.998501
458.429653	0.998861
458.802628	0.997968
459.175542	0.998585
459.548398	0.998893
459.921194	0.998776
460.293930	0.998918
460.666607	0.998396
461.039224	0.998135
461.411782	0.998519
461.784280	0.998433
462.156719	1.000078
462.529099	0.998959
462.901419	0.998847
463.273680	0.998970
463.645882	0.999579
464.018024	0.999279
464.390106	0.999448
464.762130	0.999088
465.134094	0.998865
465.505999	0.999437
465.877845	0.999300
466.249631	0.999631
466.621358	0.999158
466.993026	0.999794
467.364634	0.999414
467.736184	0.999543
468.107674	0.999096
468.479105	0.998998
468.850477	0.999120
469.221790	0.999128
469.593043	0.999232
469.964238	0.999604
470.335373	0.998788
470.706449	1.000002
471.077467	0.999447
471.448425	0.999466
471.819324	0.999637
472.190164	0.999299
472.560945	0.998754
472.931667	0.998995
473.302330	0.999257
473.672934	0.999574
474.043479	0.999276
474.413965	0.998825
474.784393	0.999345
475.154761	0.998615
475.525070	0.998894
475.895321	0.999442
476.265513	0.999084
476.635645	0.999195
477.005719	0.999064
477.375734	0.998897
477.745691	0.998638
478.115588	0.999010
478.485427	0.999212
478.855207	0.998999
479.224928	0.998642
479.594591	0.999487
479.964194	0.999230
480.333739	0.999243
480.703226	0.998771
481.072653	0.999281
481.442022	0.999851
481.811333	0.997706
482.180584	0.999222
482.549777	0.998870
482.918912	0.998569
483.287988	0.998574
483.657005	0.998597
484.025964	0.999102
484.394864	0.999186
484.763706	0.998940
485.132489	0.998890
485.501213	0.997938
485.869879	0.998645
486.238487	0.998861
486.607036	0.998726
486.975527	0.997780
487.343959	0.998102
487.712333	0.997701
488.080648	0.997779
488.448905	0.998393
488.817104	0.997506
489.185244	0.998157
489.553326	0.997938
489.921350	0.996815
490.289315	0.996345
490.657222	0.997285
491.025070	0.996771
491.392861	0.997083
491.760593	0.996136
492.128267	0.996031
492.495883	0.995969
492.863440	0.995049
493.230939	0.995452
493.598380	0.994645
493.965763	0.993998
494.333088	0.994219
494.700354	0.993269
495.067563	0.992659
495.434713	0.991895
495.801805	0.992282
496.168839	0.991697
496.535815	0.989843
496.902733	0.990320
497.269593	0.989663
497.636395	0.989166
498.003139	0.988181
498.369825	0.988176
498.736453	0.986608
499.103023	0.985660
499.469535	0.984957
499.835989	0.984074
500.202385	0.983609
500.568723	0.982828
500.935003	0.982022
501.301226	0.980526
501.667390	0.979351
502.033497	0.978388
502.399546	0.978249
502.765537	0.975894
503.131470	0.974281
503.497345	0.973123
503.863163	0.973409
504.228923	0.970927
504.594625	0.969581
504.960269	0.968482
505.325856	0.966338
505.691385	0.964467
506.056856	0.962745
506.422270	0.961596
506.787625	0.959600
507.152924	0.957271
507.518164	0.955806
507.883347	0.953461
508.248472	0.951427
508.613540	0.949513
508.978550	0.947262
509.343503	0.944722
509.708398	0.942864
510.073236	0.940173
510.438016	0.938184
510.802738	0.935146
511.167403	0.932858
511.532010	0.929825
511.896561	0.927344
512.261053	0.925293
512.625488	0.921839
512.989866	0.918767
513.354186	0.916450
513.718449	0.912073
514.082655	0.909135
514.446803	0.906280
514.810894	0.903179
515.174927	0.899008
515.538904	0.895855
515.902822	0.891569
516.266684	0.889690
516.630488	0.885771
516.994235	0.881286
517.357925	0.877368
517.721558	0.873726
518.085133	0.868149
518.448651	0.865826
518.812112	0.861774
519.175516	0.856720
519.538863	0.852700
519.902152	0.848833
520.265385	0.843073
520.628560	0.839626
520.991678	0.834868
521.354739	0.831173
521.717743	0.826908
522.080690	0.822424
522.443580	0.816084
522.806413	0.811981
523.169189	0.806951
523.531908	0.801345
523.894569	0.798489
524.257174	0.793016
524.619722	0.786795
524.982213	0.783099
525.344647	0.777336
525.707025	0.772457
526.069345	0.766410
526.431608	0.761920
526.793815	0.756246
527.155964	0.751795
527.518057	0.747016
527.880093	0.741177
528.242072	0.735914
528.603995	0.730255
528.965860	0.725855
529.327669	0.719804
529.689421	0.715277
530.051117	0.710830
530.412755	0.702647
530.774337	0.700254
531.135862	0.693490
531.497331	0.688747
531.858743	0.683147
532.220098	0.676532
532.581396	0.672309
532.942638	0.667774
533.303824	0.662179
533.664953	0.656355
534.026025	0.651545
534.387040	0.645116
534.747999	0.640733
535.108902	0.634033
535.469748	0.631119
535.830537	0.625015
536.191270	0.619840
536.551947	0.613748
536.912567	0.608628
537.273131	0.604810
537.633638	0.599608
537.994089	0.593855
538.354483	0.588951
538.714821	0.582596
539.075103	0.576765
539.435328	0.571617
539.795497	0.569394
540.155609	0.561381
540.515665	0.555659
540.875665	0.553954
541.235609	0.547285
541.595496	0.543003
541.955328	0.534590
542.315102	0.532501
542.674821	0.527789
543.034483	0.521997
543.394090	0.517324
543.753640	0.513954
544.113134	0.505317
544.472571	0.503390
544.831953	0.495992
545.191278	0.493750
545.550548	0.489310
545.909761	0.481819
546.268918	0.478372
546.628019	0.472309
546.987064	0.469194
547.346053	0.466978
547.704986	0.460124
548.063863	0.456182
548.422684	0.453071
548.781449	0.449528
549.140158	0.443588
549.498811	0.441276
549.857408	0.440641
550.215949	0.431420
550.574434	0.430038
550.932864	0.423915
551.291237	0.419973
551.649555	0.415880
552.007817	0.412365
552.366022	0.409505
552.724173	0.406128
553.082267	0.403191
553.440305	0.395753
553.798288	0.397023
554.156215	0.389681
554.514086	0.386956
554.871902	0.386517
555.229661	0.382225
555.587365	0.379597
555.945014	0.379185
556.302606	0.372375
556.660143	0.372191
557.017625	0.365234
557.375050	0.364359
557.732421	0.358638
558.089735	0.357582
558.446994	0.354736
558.804197	0.351090
559.161345	0.348407
559.518437	0.349331
559.875474	0.343597
560.232455	0.340639
560.589381	0.339662
560.946251	0.336289
561.303065	0.332464
561.659825	0.330701
562.016528	0.329823
562.373177	0.330226
562.729770	0.324964
563.086307	0.324993
563.442789	0.320729
563.799216	0.320451
564.155587	0.317955
564.511904	0.316104
564.868164	0.314459
565.224370	0.312734
565.580520	0.312017
565.936615	0.310471
566.292654	0.310996
566.648638	0.307034
567.004567	0.305575
567.360441	0.304747
567.716260	0.304875
568.072023	0.301213
568.427732	0.300423
568.783385	0.301595
569.138982	0.298050
569.494525	0.296443
569.850013	0.297757
570.205445	0.294704
570.560823	0.296185
570.916145	0.296798
571.271412	0.293446
571.626625	0.293509
571.981782	0.293042
572.336884	0.292699
572.691931	0.291519
573.046923	0.291183
573.401860	0.291405
573.756743	0.291860
574.111570	0.290265
574.466342	0.289609
574.821059	0.287524
575.175722	0.289553
575.530330	0.288567
575.884882	0.287644
576.239380	0.288947
576.593823	0.288533
576.948211	0.287117
577.302544	0.289674
577.656823	0.288791
578.011047	0.288074
578.365216	0.287954
578.719330	0.289410
579.073389	0.288574
579.427394	0.289623
579.781344	0.289688
580.135239	0.290310
580.489080	0.289811
580.842866	0.291865
581.196597	0.291272
581.550273	0.289801
581.903895	0.290309
582.257463	0.287576
582.610975	0.290898
582.964434	0.290058
583.317837	0.292231
583.671186	0.292108
584.024481	0.291729
584.377721	0.293833
584.730906	0.294006
585.084037	0.292757
585.437113	0.294558
585.790135	0.293718
586.143103	0.296143
586.496016	0.297202
586.848874	0.294467
587.201679	0.294803
587.554428	0.297930
587.907124	0.296435
588.259765	0.296662
588.612352	0.297552
588.964884	0.300735
589.317362	0.300386
589.669786	0.299794
590.022155	0.298355
590.374470	0.297449
590.726731	0.299567
591.078937	0.303832
591.431090	0.300053
591.783188	0.303893
592.135232	0.304584
592.487222	0.304298
592.839157	0.302578
593.191038	0.304711
593.542866	0.306212
593.894639	0.309956
594.246358	0.307586
594.598022	0.307074
594.949633	0.310649
595.301190	0.311388
595.652692	0.310198
596.004141	0.306629
596.355535	0.314325
596.706876	0.314518
597.058162	0.317062
597.409395	0.314287
597.760573	0.312056
598.111698	0.315114
598.462768	0.315351
598.813785	0.316803
599.164748	0.318016
599.515657	0.317915
599.866511	0.321743
600.217312	0.316743
600.568060	0.322201
600.918753	0.318030
601.269392	0.318875
601.619978	0.321956
601.970510	0.319996
602.320988	0.319571
602.671412	0.317553
603.021783	0.320224
603.372100	0.321482
603.722363	0.321009
604.072572	0.322162
604.422728	0.321600
604.772830	0.323317
605.122878	0.322955
605.472872	0.323810
605.822813	0.321805
606.172701	0.324533
606.522534	0.321663
606.872314	0.321527
607.222041	0.322540
607.571714	0.321192
607.921333	0.322459
608.270899	0.321920
608.620411	0.318707
608.969870	0.322487
609.319276	0.322723
609.668627	0.322534
610.017926	0.321183
610.367171	0.319705
610.716362	0.320494
611.065500	0.320736
611.414585	0.319494
611.763616	0.320023
612.112594	0.320543
612.461518	0.319950
612.810389	0.317318
613.159207	0.319537
613.507971	0.321405
613.856682	0.317140
614.205340	0.318717
614.553945	0.315309
614.902496	0.319314
615.250994	0.317185
615.599439	0.318174
615.947830	0.317270
616.296169	0.318443
616.644454	0.317864
616.992686	0.318047
617.340864	0.315588
617.688990	0.319221
618.037063	0.316087
618.385082	0.317774
618.733048	0.314547
619.080961	0.316890
619.428821	0.316619
619.776628	0.316174
620.124382	0.317939
620.472083	0.318173
620.819731	0.317742
621.167326	0.321073
621.514868	0.321099
621.862357	0.325251
622.209793	0.324748
622.557176	0.327082
622.904506	0.328110
623.251783	0.330237
623.599007	0.332925
623.946179	0.332777
624.293297	0.334243
624.640363	0.338282
624.987376	0.338871
625.334336	0.341185
625.681243	0.343544
626.028097	0.344009
626.374899	0.345305
626.721647	0.345451
627.068343	0.348926
627.414987	0.349591
627.761577	0.351913
628.108115	0.349693
628.454600	0.355049
628.801032	0.352540
629.147412	0.354542
629.493739	0.354929
629.840014	0.357777
630.186236	0.355567
630.532405	0.360936
630.878521	0.358713
631.224585	0.360437
631.570597	0.364392
631.916556	0.362357
632.262462	0.363150
632.608316	0.364560
632.954117	0.365399
633.299866	0.366484
633.645562	0.366964
633.991206	0.371239
634.336797	0.373863
634.682336	0.376253
635.027823	0.378044
635.373257	0.378696
635.718639	0.382311
636.063968	0.381196
636.409245	0.386973
636.754470	0.387177
637.099642	0.390055
637.444762	0.393296
637.789829	0.392074
638.134845	0.395453
638.479808	0.396715
638.824719	0.396458
639.169577	0.400531
639.514383	0.399120
639.859137	0.403821
640.203839	0.403769
640.548489	0.403882
640.893086	0.405228
641.237632	0.406521
641.582125	0.405279
641.926566	0.406567
642.270955	0.407094
642.615292	0.406748
642.959576	0.406538
643.303809	0.407441
643.647990	0.406997
643.992118	0.407135
644.336195	0.411055
644.680219	0.408615
645.024192	0.409846
645.368112	0.403690
645.711981	0.402316
646.055797	0.397946
646.399562	0.399883
646.743274	0.391716
647.086935	0.389775
647.430544	0.389664
647.774101	0.388554
648.117606	0.388211
648.461059	0.388963
648.804460	0.391245
649.147810	0.396193
649.491108	0.398365
649.834354	0.399659
650.177548	0.404835
650.520690	0.410092
650.863781	0.410998
651.206820	0.410494
651.549807	0.415274
651.892742	0.419226
652.235626	0.418754
652.578458	0.419672
652.921238	0.426068
653.263967	0.423664
653.606644	0.428041
653.949269	0.427506
654.291843	0.431235
654.634365	0.427814
654.976836	0.431121
655.319255	0.431020
655.661622	0.432868
656.003938	0.432679
656.346203	0.435930
656.688416	0.433445
657.030577	0.437650
657.372687	0.439074
657.714746	0.439963
658.056753	0.437058
658.398708	0.440571
658.740612	0.442147
659.082465	0.438056
659.424266	0.438470
659.766016	0.438274
660.107715	0.440692
660.449362	0.439823
660.790958	0.439959
661.132503	0.440137
661.473996	0.438317
661.815438	0.439340
662.156829	0.439730
662.498168	0.440464
662.839456	0.441455
663.180693	0.439699
663.521879	0.439341
663.863013	0.440151
664.204097	0.438984
664.545129	0.435600
664.886110	0.435820
665.227040	0.433339
665.567918	0.435919
665.908746	0.434071
666.249522	0.433795
666.590248	0.434513
666.930922	0.432917
667.271545	0.432075
667.612118	0.431870
667.952639	0.433538
668.293109	0.432085
668.633528	0.435046
668.973896	0.434680
669.314213	0.435428
669.654480	0.436363
669.994695	0.437001
670.334859	0.438021
670.674973	0.438419
671.015035	0.438348
671.355047	0.438489
671.695008	0.439512
672.034918	0.441424
672.374777	0.440389
672.714585	0.441330
673.054342	0.441770
673.394049	0.441767
673.733705	0.439533
674.073310	0.440950
674.412864	0.443484
674.752368	0.444317
675.091820	0.444303
675.431223	0.448663
675.770574	0.448463
676.109875	0.451737
676.449125	0.451606
676.788324	0.453852
677.127473	0.459737
677.466571	0.459225
677.805619	0.460738
678.144616	0.461375
678.483562	0.463462
678.822458	0.466046
679.161303	0.467222
679.500098	0.467022
679.838842	0.469109
680.177535	0.468362
680.516179	0.466963
680.854771	0.465735
681.193314	0.459493
681.531805	0.451493
681.870247	0.439478
682.208638	0.432137
682.546978	0.431127
682.885268	0.432396
683.223508	0.438775
683.561697	0.442656
683.899836	0.445541
684.237925	0.449017
684.575963	0.451444
684.913951	0.454438
685.251889	0.450435
685.589776	0.452246
685.927614	0.454430
686.265401	0.449210
686.603137	0.450260
686.940824	0.444630
687.278460	0.443055
687.616046	0.441847
687.953582	0.436958
688.291068	0.438141
688.628504	0.433820
688.965889	0.436236
689.303224	0.440269
689.640510	0.444107
689.977745	0.450204
690.314930	0.458290
690.652065	0.462436
690.989150	0.469945
691.326185	0.476437
691.663170	0.480507
692.000105	0.488167
692.336990	0.494987
692.673825	0.497535
693.010610	0.503795
693.347345	0.509710
693.684030	0.511497
694.020665	0.515936
694.357251	0.524379
694.693786	0.524194
695.030272	0.528811
695.366707	0.531684
695.703093	0.534918
696.039429	0.533354
696.375716	0.534287
696.711952	0.538180
697.048139	0.539450
697.384276	0.541704
697.720363	0.539576
698.056400	0.539433
698.392388	0.544800
698.728326	0.547205
699.064214	0.550228
699.400053	0.550575
699.735842	0.554881
700.071581	0.558039
700.407270	0.560045
700.742910	0.562713
701.078501	0.569490
701.414042	0.569519
701.749533	0.572614
702.084974	0.581385
702.420366	0.573940
702.755709	0.581431
703.091002	0.589277
703.426246	0.581870
703.761440	0.588607
704.096584	0.592928
704.431679	0.590789
704.766725	0.591635
705.101721	0.593356
705.436668	0.589217
705.771565	0.597083
706.106413	0.593730
706.441212	0.589198
706.775961	0.588262
707.110661	0.591199
707.445311	0.587153
707.779913	0.583442
708.114465	0.582720
708.448967	0.579464
708.783421	0.571986
709.117825	0.565829
709.452180	0.565875
709.786485	0.559629
710.120742	0.549354
710.454949	0.552332
710.789107	0.544393
711.123216	0.535043
711.457275	0.537590
711.791286	0.527551
712.125247	0.526691
712.459159	0.536868
712.793023	0.530106
713.126837	0.534063
713.460602	0.534521
713.794318	0.544434
714.127985	0.542471
714.461602	0.552491
714.795171	0.555850
715.128691	0.564160
715.462162	0.570925
715.795584	0.576528
716.128957	0.579927
716.462281	0.586104
716.795556	0.589958
717.128782	0.594818
717.461960	0.603930
717.795088	0.602795
718.128167	0.608934
718.461198	0.617267
718.794180	0.618128
719.127113	0.620895
719.459997	0.623873
719.792833	0.630611
720.125619	0.632263
720.458357	0.637652
720.791046	0.637630
721.123686	0.640962
721.456278	0.648109
721.788821	0.645333
722.121315	0.649532
722.453761	0.653573
722.786158	0.651924
723.118506	0.648310
723.450805	0.655900
723.783056	0.651467
724.115259	0.648375
724.447412	0.648180
724.779518	0.649596
725.111574	0.648920
725.443582	0.644357
725.775542	0.646181
726.107453	0.638842
726.439315	0.638523
726.771129	0.636394
727.102895	0.630429
727.434612	0.623459
727.766281	0.621273
728.097901	0.620136
728.429473	0.620392
728.760996	0.618973
729.092471	0.618790
729.423897	0.622435
729.755276	0.621716
730.086606	0.621945
730.417887	0.615552
730.749120	0.607794
731.080305	0.597432
731.411442	0.593714
731.742530	0.598933
732.073570	0.597916
732.404562	0.590300
732.735506	0.591628
733.066401	0.596691
733.397249	0.605517
733.728048	0.616890
734.058798	0.629549
734.389501	0.640075
734.720156	0.649557
735.050762	0.658209
735.381320	0.658873
735.711831	0.667406
736.042293	0.673403
736.372707	0.668067
736.703073	0.673239
737.033391	0.675546
737.363661	0.672343
737.693883	0.667275
738.024056	0.666107
738.354182	0.666946
738.684260	0.655904
739.014290	0.652367
739.344272	0.652647
739.674207	0.646528
740.004093	0.646336
740.333931	0.646520
740.663722	0.646646
740.993464	0.646730
741.323159	0.650757
741.652806	0.655527
741.982405	0.661143
742.311956	0.664559
742.641460	0.667193
742.970915	0.671316
743.300323	0.678526
743.629683	0.684679
743.958996	0.686222
744.288260	0.691154
744.617477	0.697217
744.946647	0.698248
745.275768	0.703985
745.604842	0.703663
745.933869	0.713536
746.262847	0.714743
746.591778	0.707177
746.920662	0.713984
747.249498	0.720243
747.578286	0.711220
747.907027	0.707762
748.235720	0.709491
748.564365	0.702969
748.892963	0.702682
749.221514	0.705984
749.550017	0.711293
749.878473	0.710622
750.206881	0.717137
750.535242	0.718063
750.863555	0.718094
751.191821	0.719340
751.520039	0.722649
751.848210	0.728024
752.176334	0.720118
752.504411	0.719763
752.832440	0.727356
753.160421	0.731715
753.488356	0.729469
753.816243	0.727035
754.144082	0.734557
754.471875	0.738814
754.799620	0.734173
755.127318	0.735419
755.454969	0.735382
755.782572	0.734480
756.110129	0.739916
756.437638	0.742664
756.765100	0.738636
757.092515	0.736495
757.419882	0.735466
757.747203	0.741499
758.074477	0.740200
758.401703	0.737500
758.728882	0.732947
759.056014	0.731444
759.383099	0.730584
759.710138	0.731487
760.037129	0.728522
760.364073	0.721762
760.690970	0.725172
761.017820	0.729753
761.344623	0.726909
761.671379	0.717209
761.998088	0.705276
762.324751	0.682968
762.651366	0.642070
762.977935	0.575623
763.304456	0.523948
763.630931	0.514898
763.957359	0.552827
764.283740	0.597554
764.610074	0.623854
764.936362	0.655185
765.262602	0.681306
765.588796	0.702102
765.914943	0.720351
766.241044	0.738026
766.567097	0.743920
766.893104	0.754120
767.219064	0.760552
767.544978	0.766342
767.870845	0.780289
768.196665	0.785031
768.522438	0.782078
768.848165	0.782982
769.173846	0.791944
769.499479	0.797052
769.825066	0.800387
770.150607	0.804300
770.476101	0.800162
770.801548	0.801657
771.126949	0.812397
771.452303	0.816550
771.777611	0.815530
772.102872	0.814836
772.428087	0.819868
772.753256	0.824287
773.078378	0.825991
773.403453	0.834339
773.728482	0.838159
774.053465	0.833198
774.378401	0.834070
774.703291	0.843830
775.028135	0.843015
775.352932	0.845154
775.677683	0.849345
776.002388	0.847966
776.327046	0.848185
776.651658	0.851509
776.976224	0.854973
777.300743	0.855605
777.625216	0.857481
777.949643	0.859040
778.274024	0.859143
778.598359	0.859512
778.922647	0.858846
779.246889	0.859136
779.571086	0.863770
779.895236	0.865515
780.219339	0.863639
780.543397	0.859897
780.867409	0.858122
781.191374	0.860517
781.515294	0.862177
781.839167	0.862225
782.162995	0.864111
782.486776	0.861615
782.810511	0.862883
783.134201	0.865701
783.457844	0.862770
783.781441	0.866723
784.104993	0.871966
784.428498	0.873543
784.751958	0.868268
785.075372	0.870108
785.398739	0.874486
785.722061	0.869749
786.045337	0.866959
786.368568	0.872017
786.691752	0.873741
787.014891	0.859319
787.337983	0.850894
787.661030	0.842736
787.984031	0.826228
788.306987	0.813021
788.629897	0.815844
788.952760	0.819083
789.275579	0.823193
789.598351	0.838415
789.921078	0.851043
790.243759	0.854488
790.566395	0.858132
790.888984	0.865252
791.211529	0.869871
791.534027	0.872983
791.856480	0.876599
792.178888	0.880257
792.501249	0.883803
792.823566	0.884889
793.145836	0.884634
793.468062	0.886352
793.790241	0.887407
794.112375	0.884161
794.434464	0.880015
794.756507	0.879362
795.078505	0.880426
795.400457	0.873572
795.722364	0.861786
796.044226	0.855128
796.366042	0.854362
796.687812	0.857397
797.009538	0.853614
797.331218	0.856630
797.652852	0.860935
797.974442	0.866851
798.295986	0.867553
798.617484	0.868463
798.938938	0.872844
799.260346	0.877697
799.581709	0.879487
799.903026	0.881586
800.224299	0.882317
800.545526	0.886104
800.866708	0.890865
801.187845	0.894249
801.508936	0.893928
801.829983	0.892078
802.150984	0.895076
802.471940	0.899722
802.792851	0.899512
803.113717	0.900471
803.434538	0.897238
803.755314	0.900188
804.076045	0.901841
804.396731	0.902440
804.717372	0.901946
805.037967	0.902889
805.358518	0.901719
805.679024	0.899308
805.999485	0.899217
806.319901	0.898680
806.640272	0.900621
806.960598	0.898527
807.280879	0.895360
807.601115	0.893529
807.921306	0.897857
808.241453	0.897500
808.561554	0.895495
808.881611	0.896121
809.201623	0.897273
809.521590	0.897627
809.841513	0.899165
810.161390	0.899281
810.481223	0.899889
810.801011	0.903416
811.120755	0.904939
811.440453	0.904077
811.760107	0.901955
812.079716	0.903230
812.399281	0.905940
812.718801	0.909083
813.038276	0.908806
813.357707	0.908470
813.677093	0.906469
813.996434	0.909443
814.315731	0.910731
814.634983	0.911479
814.954191	0.909458
815.273354	0.906407
815.592473	0.904133
815.911547	0.903023
816.230577	0.900337
816.549562	0.897767
816.868502	0.898832
817.187399	0.895934
817.506250	0.890584
817.825058	0.891314
818.143821	0.888459
818.462539	0.883825
818.781213	0.875554
819.099843	0.864172
819.418429	0.849167
819.736970	0.832107
820.055466	0.813999
820.373919	0.788583
820.692327	0.755881
821.010691	0.722383
821.329011	0.646730
821.647286	0.533078
821.965517	0.420754
822.283704	0.378535
822.601847	0.380135
822.919945	0.416080
823.237999	0.448684
823.556010	0.494134
823.873976	0.549397
824.191897	0.599250
824.509775	0.640888
824.827609	0.685236
825.145398	0.707822
825.463144	0.710614
825.780845	0.693121
826.098502	0.675736
826.416116	0.630165
826.733685	0.586802
827.051210	0.579075
827.368692	0.593634
827.686129	0.630142
828.003522	0.682407
828.320872	0.729250
828.638177	0.771185
828.955439	0.804828
829.272656	0.825498
829.589830	0.842059
829.906960	0.857351
830.224046	0.869691
830.541088	0.880607
830.858086	0.883791
831.175041	0.888947
831.491952	0.889723
831.808819	0.886581
832.125642	0.879235
832.442421	0.864702
832.759157	0.844287
833.075849	0.798337
833.392497	0.735884
833.709101	0.695193
834.025662	0.705851
834.342179	0.736377
834.658653	0.774897
834.975083	0.810082
835.291469	0.835579
835.607811	0.858454
835.924110	0.872710
836.240366	0.890033
836.556578	0.904453
836.872746	0.911697
837.188871	0.916108
837.504952	0.922471
837.820990	0.925572
838.136984	0.929357
838.452935	0.931883
838.768842	0.933518
839.084706	0.926316
839.400526	0.901198
839.716303	0.862815
840.032037	0.840050
840.347727	0.844403
840.663373	0.860855
840.978977	0.882448
841.294537	0.903859
841.610054	0.920070
841.925527	0.928829
842.240957	0.934499
842.556344	0.942225
842.871687	0.947066
843.186987	0.951985
843.502244	0.951771
843.817458	0.953608
844.132629	0.956304
844.447756	0.961559
844.762840	0.962235
845.077881	0.961003
845.392879	0.961396
845.707833	0.963532
846.022745	0.965603
846.337613	0.965084
846.652438	0.966709
846.967221	0.965122
847.281960	0.965767
847.596656	0.969273
847.911309	0.966485
848.225919	0.968572
848.540485	0.969762
848.855009	0.970296
849.169490	0.969579
849.483928	0.970637
849.798323	0.969587
850.112675	0.971083
850.426984	0.970982
850.741251	0.971711
851.055474	0.971531
851.369654	0.968906
851.683792	0.970054
851.997887	0.970810
852.311938	0.971536
852.625947	0.971389
852.939914	0.969016
853.253837	0.970645
853.567718	0.970734
853.881555	0.972905
854.195350	0.970719
854.509103	0.971877
854.822812	0.971839
855.136479	0.971182
855.450103	0.970929
855.763685	0.970033
856.077224	0.969705
856.390720	0.971910
856.704173	0.971612
857.017584	0.970227
857.330953	0.968224
857.644278	0.968725
857.957561	0.970296
858.270802	0.969606
858.584000	0.969697
858.897155	0.968157
859.210268	0.968393
859.523339	0.969502
859.836367	0.971487
860.149352	0.971335
860.462295	0.968918
860.775195	0.971395
861.088054	0.970455
861.400869	0.970250
861.713642	0.971399
862.026373	0.971763
862.339062	0.972416
862.651708	0.968900
862.964312	0.969019
863.276873	0.970788
863.589392	0.969596
863.901869	0.967533
864.214303	0.966317
864.526696	0.964981
864.839045	0.965089
865.151353	0.963696
865.463619	0.963913
865.775842	0.964053
866.088023	0.962895
866.400162	0.963324
866.712258	0.965049
867.024313	0.964527
867.336325	0.965385
867.648296	0.965700
867.960224	0.964094
868.272110	0.964334
868.583954	0.964840
868.895755	0.964819
869.207515	0.962772
869.519233	0.960742
869.830909	0.962445
870.142542	0.963174
870.454134	0.963937
870.765684	0.960749
871.077191	0.960371
871.388657	0.960053
871.700081	0.959804
872.011463	0.959809
872.322803	0.959689
872.634101	0.958406
872.945357	0.955692
873.256571	0.955120
873.567744	0.954901
873.878874	0.955760
874.189963	0.953750
874.501010	0.953295
874.812015	0.952255
875.122979	0.953213
875.433900	0.955184
875.744780	0.955579
876.055618	0.952317
876.366415	0.952208
876.677169	0.951144
876.987882	0.953678
877.298554	0.953067
877.609183	0.949919
877.919771	0.947924
878.230317	0.945715
878.540822	0.944222
878.851285	0.937999
879.161707	0.930060
879.472087	0.918680
879.782425	0.903755
880.092722	0.870947
880.402977	0.819161
880.713191	0.760370
881.023363	0.704423
881.333494	0.672268
881.643583	0.644632
881.953631	0.643589
882.263637	0.672440
882.573602	0.710563
882.883526	0.735052
883.193408	0.758540
883.503248	0.779319
883.813048	0.806856
884.122806	0.834622
884.432522	0.857793
884.742197	0.875591
885.051831	0.885682
885.361424	0.896643
885.670975	0.907149
885.980485	0.917056
886.289954	0.922839
886.599382	0.927840
886.908768	0.932642
887.218113	0.936996
887.527417	0.941217
887.836680	0.944456
888.145901	0.945773
888.455082	0.948214
888.764221	0.953272
889.073319	0.954315
889.382376	0.955693
889.691392	0.954450
890.000366	0.954977
890.309300	0.955299
890.618193	0.955130
890.927044	0.953067
891.235855	0.952433
891.544625	0.953916
891.853353	0.954334
892.162041	0.952986
892.470687	0.944634
892.779293	0.941476
893.087858	0.936816
893.396381	0.929500
893.704864	0.916565
894.013306	0.894872
894.321707	0.868217
894.630068	0.855401
894.938387	0.850534
895.246665	0.852608
895.554903	0.862794
895.863100	0.875261
896.171256	0.891773
896.479371	0.910834
896.787446	0.923545
897.095480	0.929012
897.403473	0.931658
897.711425	0.935917
898.019336	0.942928
898.327207	0.946120
898.635038	0.948556
898.942827	0.947657
899.250576	0.950253
899.558284	0.954673
899.865952	0.956406
900.173579	0.956145
900.481165	0.958541
900.788711	0.961580
901.096216	0.963934
901.403681	0.963177
901.711105	0.965180
902.018489	0.965463
902.325832	0.964490
902.633135	0.964617
902.940397	0.957587
903.247619	0.946524
903.554800	0.921696
903.861941	0.884303
904.169041	0.851655
904.476101	0.834993
904.783121	0.835897
905.090100	0.850631
905.397039	0.871619
905.703938	0.891881
906.010796	0.911675
906.317614	0.927374
906.624391	0.937958
906.931129	0.946816
907.237826	0.953957
907.544483	0.961870
907.851099	0.965534
908.157675	0.970059
908.464211	0.971117
908.770707	0.973718
909.077163	0.976609
909.383578	0.976433
909.689954	0.976286
909.996289	0.977034
910.302584	0.979210
910.608839	0.980315
910.915054	0.979555
911.221229	0.978971
911.527363	0.978075
911.833458	0.978428
912.139513	0.978694
912.445527	0.976548
912.751502	0.974915
913.057436	0.974075
913.363331	0.971972
913.669186	0.968622
913.975000	0.963261
914.280775	0.957855
914.586510	0.951649
914.892205	0.939017
915.197859	0.919184
915.503475	0.892563
915.809050	0.874651
916.114585	0.870522
916.420081	0.866805
916.725536	0.864701
917.030952	0.870849
917.336328	0.884432
917.641665	0.898725
917.946961	0.913034
918.252218	0.923627
918.557435	0.932388
918.862612	0.940621
919.167750	0.945610
919.472848	0.950678
919.777906	0.955181
920.082925	0.961514
920.387904	0.964084
920.692843	0.965790
920.997743	0.966522
921.302603	0.970314
921.607423	0.970654
921.912204	0.973937
922.216946	0.973799
922.521647	0.975522
922.826310	0.976170
923.130932	0.977868
923.435516	0.979654
923.740059	0.980953
924.044564	0.979579
924.349028	0.981675
924.653454	0.983773
924.957840	0.986731
925.262186	0.984890
925.566493	0.984415
925.870761	0.986369
926.174989	0.986647
926.479178	0.988911
926.783328	0.988537
927.087438	0.990271
927.391509	0.988851
927.695541	0.989759
927.999533	0.991049
928.303486	0.989916
928.607400	0.992731
928.911275	0.990463
929.215110	0.991145
929.518906	0.991909
929.822663	0.990137
930.126381	0.992244
930.430060	0.989433
930.733699	0.991617
931.037299	0.990393
931.340861	0.990619
931.644383	0.989956
931.947866	0.989797
932.251309	0.991387
932.554714	0.990953
932.858080	0.990067
933.161407	0.990940
933.464694	0.991961
933.767943	0.990133
934.071153	0.991329
934.374323	0.991957
934.677455	0.991577
934.980548	0.992716
935.283602	0.991425
935.586617	0.991945
935.889593	0.991439
936.192530	0.990862
936.495428	0.991727
936.798287	0.990923
937.101108	0.991899
937.403890	0.989754
937.706632	0.990117
938.009336	0.987597
938.312002	0.986760
938.614628	0.985365
938.917216	0.983890
939.219765	0.982695
939.522275	0.984764
939.824747	0.984347
940.127179	0.984765
940.429573	0.986815
940.731929	0.985298
941.034246	0.985496
941.336524	0.986324
941.638763	0.986975
941.940964	0.987524
942.243126	0.987821
942.545250	0.988036
942.847335	0.989647
943.149381	0.989496
943.451389	0.988831
943.753359	0.989338
944.055290	0.992052
944.357182	0.990393
944.659036	0.989051
944.960851	0.990581
945.262628	0.991263
945.564367	0.992139
945.866067	0.989600
946.167729	0.991954
946.469352	0.992624
946.770937	0.989578
947.072484	0.991099
947.373992	0.991005
947.675462	0.991529
947.976893	0.990510
948.278286	0.990609
948.579641	0.992216
948.880958	0.992088
949.182236	0.993072
949.483476	0.991428
949.784678	0.990909
950.085841	0.991790
950.386967	0.991586
950.688054	0.992109
950.989103	0.992185
951.290114	0.990130
951.591087	0.990600
951.892021	0.991334
952.192917	0.989660
952.493776	0.988962
952.794596	0.988421
953.095378	0.988649
953.396122	0.988901
953.696828	0.987903
953.997496	0.989456
954.298126	0.991033
954.598718	0.990571
954.899272	0.991557
955.199788	0.991501
955.500266	0.992319
955.800706	0.994166
956.101108	0.993748
956.401472	0.993443
956.701798	0.994102
957.002087	0.993845
957.302337	0.994650
957.602550	0.996541
957.902724	0.994987
958.202861	0.995353
958.502960	0.994654
958.803022	0.995002
959.103045	0.995767
959.403031	0.996270
959.702979	0.995507
960.002889	0.996393
960.302762	0.994076
960.602596	0.995941
960.902393	0.994466
961.202153	0.997956
961.501875	0.997877
961.801559	0.995838
962.101205	0.996775
962.400814	0.995688
962.700385	0.996453
962.999918	0.997126
963.299414	0.997780
963.598873	0.995173
963.898293	0.995619
964.197677	0.995754
964.497022	0.996588
964.796331	0.996961
965.095601	0.997189
965.394835	0.997519
965.694030	0.997339
965.993189	0.998215
966.292309	0.997408
966.591393	0.997768
966.890439	0.995801
967.189447	0.996720
967.488419	0.997625
967.787353	0.996574
968.086249	0.996701
968.385108	0.997670
968.683930	0.997000
968.982714	0.997742
969.281462	0.997468
969.580172	0.996213
969.878844	0.997084
970.177480	0.996910
970.476078	0.996949
970.774639	0.996695
971.073162	0.996915
971.371649	0.996343
971.670098	0.997562
971.968510	0.997086
972.266885	0.995056
972.565223	0.997174
972.863524	0.996377
973.161788	0.997033
973.460014	0.998247
973.758204	0.995548
974.056356	0.997315
974.354471	0.994496
974.652550	0.997278
974.950591	0.996994
975.248595	0.996549
975.546563	0.997937
975.844493	0.998594
976.142386	0.997355
976.440243	0.997742
976.738062	0.998069
977.035845	0.998464
977.333590	0.997094
977.631299	0.997406
977.928971	0.998050
978.226606	0.996730
978.524204	0.996757
978.821765	0.998712
979.119290	0.997189
979.416777	0.997188
979.714228	0.996658
980.011642	0.995974
980.309020	0.996769
980.606360	0.997220
980.903664	0.998480
981.200931	0.995810
981.498162	0.995081
981.795356	0.994818
982.092513	0.995193
982.389633	0.995339
982.686717	0.992505
982.983764	0.991390
983.280775	0.990464
983.577749	0.991372
983.874686	0.991841
984.171587	0.992557
984.468451	0.994639
984.765279	0.994970
985.062070	0.994553
985.358824	0.994427
985.655543	0.995468
985.952224	0.996521
986.248869	0.996716
986.545478	0.996762
986.842050	0.997697
987.138586	0.995883
987.435086	0.997377
987.731549	0.998664
988.027975	0.997426
988.324366	0.998382
988.620719	0.997801
988.917037	0.995756
989.213318	0.998196
989.509563	0.998578
989.805772	0.997987
990.101944	0.998524
990.398080	0.998211
990.694180	0.998390
990.990244	0.997442
991.286271	0.997752
991.582262	0.997585
991.878217	0.997398
992.174136	0.998977
992.470019	0.998515
992.765865	0.998509
993.061676	0.998597
993.357450	0.997643
993.653188	0.997178
993.948890	0.997655
994.244556	0.998198
994.540186	0.997126
994.835780	0.996606
995.131337	0.997625
995.426859	0.996871
995.722345	0.997675
996.017795	0.997472
996.313208	0.996845
996.608586	0.996783
996.903928	0.997390
997.199234	0.996792
997.494504	0.997119
997.789738	0.996526
998.084936	0.996245
998.380099	0.997704
998.675225	0.996851
998.970316	0.998342
999.265371	0.998356
999.560390	0.998072
999.855373	0.998693
1000.150320	0.998179
1000.445232	0.998018
1000.740108	0.997150
1001.034948	0.998749
1001.329752	0.998151
1001.624521	0.999122
1001.919254	0.998591
1002.213951	0.997844
1002.508613	0.998185
1002.803239	0.999107
1003.097829	0.998240
1003.392384	0.999611
1003.686903	0.998414
1003.981386	0.998853
1004.275834	1.000413
1004.570246	0.997679
1004.864623	0.999297
1005.158964	0.999095
1005.453270	0.998616
1005.747540	0.997353
1006.041775	0.999267
1006.335974	0.999768
1006.630138	0.999322
1006.924266	0.999874
1007.218359	1.000447
1007.512416	0.998723
1007.806438	0.999624
1008.100425	0.999822
1008.394376	0.998375
1008.688292	0.998878
1008.982172	1.000121
1009.276017	0.998346
1009.569827	0.998742
1009.863602	0.999361
1010.157341	0.999931
1010.451045	1.000098
1010.744714	0.999248
1011.038347	0.999009
1011.331945	0.999912
1011.625508	0.997287
1011.919036	0.998633
1012.212528	0.997684
1012.505986	0.997993
1012.799408	0.999268
1013.092795	0.999616
1013.386147	0.998913
1013.679464	0.998541
1013.972745	0.998949
1014.265992	0.997211
1014.559204	0.999385
1014.852380	0.999161
1015.145521	0.998418
1015.438628	0.999216
1015.731699	0.998733
1016.024736	0.998401
1016.317737	0.998683
1016.610703	0.998382
1016.903635	0.999908
1017.196531	0.998984
1017.489393	0.999578
1017.782219	0.998830
1018.075011	0.998043
1018.367768	0.999133
1018.660490	0.999922
1018.953177	0.999922
1019.245829	0.999922
