Dividing Wavelength (nm)	Counts (n)	Blue Motor Position (mm): 0.000000	Red Motor Position (mm): 15.400000	
326.493990	1.000381
326.888308	1.000381
327.282561	1.000381
327.676750	1.000036
328.070874	0.999113
328.464933	1.000572
328.858929	0.999618
329.252859	1.000177
329.646726	0.999700
330.040528	1.000653
330.434265	1.000371
330.827938	1.001668
331.221547	1.000976
331.615091	0.998390
332.008571	1.000742
332.401986	1.000596
332.795338	1.000192
333.188625	0.998878
333.581847	1.001096
333.975006	0.999803
334.368100	1.000080
334.761129	1.000282
335.154095	1.001030
335.546996	0.998106
335.939833	0.994172
336.332606	0.994247
336.725315	0.995402
337.117960	0.995488
337.510540	0.994849
337.903056	0.995163
338.295508	0.992434
338.687896	0.994683
339.080220	0.994732
339.472480	0.994049
339.864676	0.993616
340.256807	0.994584
340.648875	0.995148
341.040879	0.994150
341.432818	0.994203
341.824694	0.994851
342.216506	0.994792
342.608253	0.994359
342.999937	0.994271
343.391557	0.995296
343.783113	0.993757
344.174605	0.994539
344.566033	0.995271
344.957397	0.993026
345.348697	0.994294
345.739934	0.993858
346.131106	0.993141
346.522215	0.993442
346.913260	0.993759
347.304241	0.993690
347.695159	0.994340
348.086012	0.993373
348.476802	0.994092
348.867528	0.994593
349.258191	0.993041
349.648789	0.993960
350.039324	0.994432
350.429796	0.995109
350.820203	0.994467
351.210548	0.994108
351.600828	0.994480
351.991045	0.994443
352.381198	0.993377
352.771288	0.994600
353.161314	0.993954
353.551276	0.995087
353.941175	0.994254
354.331010	0.993911
354.720782	0.994838
355.110490	0.993891
355.500135	0.994394
355.889717	0.994540
356.279235	0.993750
356.668689	0.993922
357.058080	0.994839
357.447408	0.994281
357.836672	0.994480
358.225873	0.996061
358.615010	0.993053
359.004084	0.994746
359.393095	0.995328
359.782043	0.994048
360.170927	0.995808
360.559748	0.994919
360.948505	0.993091
361.337199	0.993558
361.725830	0.995688
362.114398	0.993601
362.502903	0.994731
362.891344	0.995403
363.279722	0.993635
363.668037	0.994758
364.056289	0.994866
364.444478	0.995062
364.832603	0.994993
365.220665	0.994536
365.608665	0.994033
365.996601	0.993817
366.384474	0.993524
366.772284	0.994799
367.160031	0.991745
367.547715	0.993315
367.935336	0.994858
368.322893	0.993457
368.710388	0.993447
369.097820	0.994205
369.485189	0.993842
369.872495	0.993745
370.259738	0.991273
370.646918	0.994032
371.034035	0.994236
371.421090	0.993178
371.808081	0.993846
372.195010	0.994903
372.581875	0.995005
372.968678	0.994270
373.355418	0.993757
373.742096	0.993772
374.128710	0.994847
374.515262	0.993646
374.901751	0.994954
375.288177	0.993766
375.674540	0.995514
376.060841	0.993237
376.447079	0.994860
376.833254	0.994061
377.219367	0.994819
377.605417	0.994034
377.991404	0.995160
378.377329	0.994106
378.763191	0.994295
379.148991	0.995177
379.534727	0.995737
379.920402	0.994627
380.306013	0.994827
380.691563	0.994727
381.077049	0.994590
381.462474	0.995470
381.847835	0.994540
382.233134	0.994121
382.618371	0.994691
383.003545	0.995431
383.388657	0.993795
383.773706	0.995031
384.158693	0.996013
384.543618	0.994530
384.928480	0.996707
385.313280	0.995481
385.698017	0.995032
386.082692	0.995538
386.467305	0.995387
386.851856	0.994805
387.236344	0.994089
387.620770	0.994496
388.005133	0.994551
388.389435	0.995441
388.773674	0.995108
389.157851	0.995587
389.541965	0.994700
389.926018	0.994266
390.310008	0.995630
390.693936	0.994301
391.077802	0.993939
391.461606	0.994365
391.845348	0.995069
392.229027	0.995065
392.612645	0.993628
392.996200	0.995370
393.379694	0.993679
393.763125	0.994462
394.146494	0.993061
394.529801	0.991512
394.913047	0.992530
395.296230	0.990579
395.679351	0.989556
396.062410	0.987185
396.445408	0.986122
396.828343	0.984231
397.211217	0.981618
397.594028	0.978567
397.976778	0.975310
398.359466	0.972790
398.742092	0.969026
399.124656	0.966358
399.507158	0.961834
399.889598	0.958545
400.271977	0.952955
400.654294	0.948829
401.036549	0.943445
401.418742	0.938312
401.800874	0.929876
402.182944	0.924556
402.564952	0.916340
402.946898	0.911911
403.328783	0.905202
403.710606	0.900210
404.092367	0.887308
404.474067	0.881862
404.855705	0.874023
405.237282	0.869283
405.618797	0.856438
406.000250	0.846631
406.381642	0.836627
406.762972	0.830177
407.144240	0.821072
407.525447	0.812073
407.906593	0.800680
408.287677	0.790471
408.668700	0.784853
409.049661	0.772788
409.430560	0.761858
409.811399	0.756300
410.192176	0.737880
410.572891	0.734019
410.953545	0.717143
411.334138	0.716743
411.714669	0.704993
412.095139	0.704219
412.475547	0.685026
412.855894	0.677779
413.236180	0.669041
413.616405	0.665323
413.996568	0.651568
414.376670	0.647629
414.756711	0.644232
415.136691	0.634908
415.516609	0.621805
415.896466	0.612428
416.276262	0.602934
416.655997	0.597960
417.035670	0.576126
417.415283	0.564722
417.794834	0.563265
418.174324	0.562274
418.553753	0.565659
418.933121	0.544757
419.312428	0.534546
419.691674	0.534901
420.070859	0.520447
420.449983	0.524040
420.829045	0.510945
421.208047	0.515959
421.586988	0.506688
421.965867	0.502066
422.344686	0.488765
422.723444	0.498084
423.102141	0.512340
423.480777	0.484202
423.859352	0.502552
424.237866	0.478018
424.616319	0.477139
424.994712	0.467163
425.373044	0.475705
425.751314	0.462570
426.129524	0.477547
426.507673	0.460607
426.885762	0.453817
427.263789	0.458159
427.641756	0.467105
428.019662	0.456562
428.397508	0.455115
428.775292	0.459163
429.153016	0.451316
429.530679	0.457029
429.908282	0.450253
430.285824	0.459515
430.663305	0.438518
431.040726	0.457948
431.418086	0.458789
431.795385	0.450175
432.172624	0.448187
432.549802	0.449521
432.926920	0.448470
433.303977	0.447442
433.680974	0.444045
434.057910	0.442680
434.434786	0.442524
434.811601	0.444487
435.188355	0.426635
435.565050	0.435912
435.941683	0.437410
436.318257	0.422177
436.694770	0.422450
437.071222	0.420101
437.447614	0.425156
437.823946	0.431561
438.200218	0.420723
438.576429	0.430721
438.952580	0.423608
439.328670	0.420323
439.704700	0.426789
440.080670	0.427825
440.456580	0.408684
440.832429	0.417158
441.208218	0.427785
441.583947	0.417287
441.959616	0.416815
442.335224	0.421316
442.710773	0.412775
443.086261	0.410073
443.461689	0.424237
443.837057	0.414063
444.212365	0.404060
444.587612	0.411113
444.962800	0.401053
445.337927	0.402577
445.712995	0.429020
446.088002	0.391725
446.462949	0.401413
446.837837	0.406098
447.212664	0.395040
447.587431	0.386520
447.962139	0.357572
448.336786	0.316794
448.711374	0.326757
449.085901	0.370414
449.460369	0.375015
449.834776	0.378535
450.209124	0.357851
450.583412	0.350923
450.957640	0.343360
451.331808	0.355158
451.705917	0.378545
452.079965	0.382775
452.453954	0.371166
452.827883	0.377737
453.201752	0.373101
453.575562	0.384444
453.949311	0.372257
454.323001	0.378688
454.696632	0.374608
455.070202	0.367283
455.443713	0.358888
455.817164	0.354048
456.190556	0.349942
456.563888	0.346360
456.937160	0.343950
457.310373	0.361289
457.683526	0.359774
458.056619	0.365574
458.429653	0.366472
458.802628	0.369668
459.175542	0.363884
459.548398	0.346900
459.921194	0.339265
460.293930	0.339265
460.666607	0.316804
461.039224	0.305101
461.411782	0.300969
461.784280	0.300276
462.156719	0.304909
462.529099	0.309127
462.901419	0.325209
463.273680	0.329185
463.645882	0.328684
464.018024	0.334592
464.390106	0.327779
464.762130	0.312238
465.134094	0.295450
465.505999	0.264582
465.877845	0.235136
466.249631	0.222324
466.621358	0.229603
466.993026	0.243537
467.364634	0.249829
467.736184	0.258383
468.107674	0.267194
468.479105	0.266190
468.850477	0.273056
469.221790	0.279716
469.593043	0.290080
469.964238	0.295217
470.335373	0.293912
470.706449	0.292612
471.077467	0.293199
471.448425	0.255572
471.819324	0.231050
472.190164	0.230496
472.560945	0.258808
472.931667	0.281253
473.302330	0.285257
473.672934	0.297175
474.043479	0.285253
474.413965	0.287107
474.784393	0.290955
475.154761	0.285943
475.525070	0.282772
475.895321	0.288716
476.265513	0.282957
476.635645	0.278210
477.005719	0.278022
477.375734	0.274585
477.745691	0.267883
478.115588	0.264496
478.485427	0.258148
478.855207	0.244855
479.224928	0.227527
479.594591	0.215472
479.964194	0.219146
480.333739	0.220381
480.703226	0.221828
481.072653	0.220170
481.442022	0.215881
481.811333	0.211986
482.180584	0.215894
482.549777	0.220993
482.918912	0.224503
483.287988	0.223846
483.657005	0.223816
484.025964	0.230074
484.394864	0.227526
484.763706	0.227861
485.132489	0.232775
485.501213	0.233680
485.869879	0.232179
486.238487	0.235461
486.607036	0.233129
486.975527	0.237619
487.343959	0.233784
487.712333	0.232879
488.080648	0.233984
488.448905	0.233352
488.817104	0.234401
489.185244	0.229057
489.553326	0.226114
489.921350	0.215695
490.289315	0.198430
490.657222	0.193542
491.025070	0.194643
491.392861	0.196697
491.760593	0.202355
492.128267	0.207919
492.495883	0.213587
492.863440	0.219553
493.230939	0.226049
493.598380	0.227360
493.965763	0.229568
494.333088	0.231718
494.700354	0.233472
495.067563	0.232229
495.434713	0.235702
495.801805	0.233356
496.168839	0.234748
496.535815	0.236288
496.902733	0.236506
497.269593	0.237952
497.636395	0.235809
498.003139	0.235938
498.369825	0.238915
498.736453	0.235304
499.103023	0.237099
499.469535	0.236176
499.835989	0.236555
500.202385	0.237407
500.568723	0.240912
500.935003	0.235773
501.301226	0.240183
501.667390	0.234537
502.033497	0.232455
502.399546	0.235346
502.765537	0.237239
503.131470	0.235692
503.497345	0.232042
503.863163	0.240792
504.228923	0.233778
504.594625	0.232223
504.960269	0.238256
505.325856	0.232894
505.691385	0.237380
506.056856	0.234170
506.422270	0.233684
506.787625	0.236147
507.152924	0.233539
507.518164	0.233855
507.883347	0.235533
508.248472	0.237250
508.613540	0.232472
508.978550	0.234828
509.343503	0.235215
509.708398	0.232927
510.073236	0.230604
510.438016	0.230445
510.802738	0.231597
511.167403	0.230385
511.532010	0.232429
511.896561	0.227640
512.261053	0.226615
512.625488	0.228764
512.989866	0.229004
513.354186	0.229508
513.718449	0.231369
514.082655	0.227947
514.446803	0.229788
514.810894	0.227311
515.174927	0.230356
515.538904	0.229186
515.902822	0.226616
516.266684	0.228924
516.630488	0.229992
516.994235	0.228840
517.357925	0.227588
517.721558	0.225873
518.085133	0.225319
518.448651	0.225318
518.812112	0.227430
519.175516	0.227379
519.538863	0.224895
519.902152	0.226406
520.265385	0.223412
520.628560	0.225062
520.991678	0.225744
521.354739	0.224620
521.717743	0.225615
522.080690	0.226403
522.443580	0.223644
522.806413	0.224472
523.169189	0.223913
523.531908	0.222496
523.894569	0.226360
524.257174	0.226107
524.619722	0.223643
524.982213	0.224958
525.344647	0.223872
525.707025	0.224540
526.069345	0.222821
526.431608	0.224569
526.793815	0.222399
527.155964	0.226591
527.518057	0.225768
527.880093	0.226762
528.242072	0.224974
528.603995	0.227155
528.965860	0.228970
529.327669	0.227600
529.689421	0.228533
530.051117	0.229313
530.412755	0.227004
530.774337	0.229309
531.135862	0.229695
531.497331	0.228932
531.858743	0.231768
532.220098	0.228352
532.581396	0.231316
532.942638	0.231629
533.303824	0.232369
533.664953	0.232238
534.026025	0.233741
534.387040	0.232166
534.747999	0.231989
535.108902	0.230939
535.469748	0.235821
535.830537	0.233752
536.191270	0.234142
536.551947	0.233842
536.912567	0.233690
537.273131	0.235422
537.633638	0.235610
537.994089	0.236072
538.354483	0.237026
538.714821	0.234076
539.075103	0.233828
539.435328	0.234284
539.795497	0.238151
540.155609	0.234620
540.515665	0.233066
540.875665	0.238392
541.235609	0.237030
541.595496	0.237140
541.955328	0.233438
542.315102	0.236260
542.674821	0.237467
543.034483	0.237502
543.394090	0.237230
543.753640	0.239049
544.113134	0.234028
544.472571	0.237066
544.831953	0.234253
545.191278	0.238434
545.550548	0.237660
545.909761	0.234643
546.268918	0.235510
546.628019	0.233682
546.987064	0.236386
547.346053	0.238250
547.704986	0.236167
548.063863	0.236333
548.422684	0.236580
548.781449	0.238502
549.140158	0.235999
549.498811	0.238763
549.857408	0.241979
550.215949	0.236863
550.574434	0.239884
550.932864	0.237634
551.291237	0.236385
551.649555	0.237811
552.007817	0.237555
552.366022	0.238621
552.724173	0.238673
553.082267	0.239104
553.440305	0.235782
553.798288	0.240274
554.156215	0.236754
554.514086	0.237457
554.871902	0.240621
555.229661	0.239698
555.587365	0.240437
555.945014	0.242884
556.302606	0.239697
556.660143	0.242340
557.017625	0.238761
557.375050	0.241127
557.732421	0.238071
558.089735	0.240192
558.446994	0.240065
558.804197	0.239305
559.161345	0.239329
559.518437	0.242662
559.875474	0.240271
560.232455	0.239882
560.589381	0.241085
560.946251	0.241090
561.303065	0.238735
561.659825	0.239858
562.016528	0.241693
562.373177	0.244351
562.729770	0.241994
563.086307	0.243686
563.442789	0.241637
563.799216	0.244485
564.155587	0.243148
564.511904	0.244112
564.868164	0.244389
565.224370	0.244516
565.580520	0.246134
565.936615	0.246023
566.292654	0.248983
566.648638	0.246014
567.004567	0.246719
567.360441	0.247357
567.716260	0.249652
568.072023	0.247254
568.427732	0.248021
568.783385	0.250411
569.138982	0.248457
569.494525	0.248267
569.850013	0.251216
570.205445	0.249438
570.560823	0.252013
570.916145	0.253839
571.271412	0.252143
571.626625	0.253859
571.981782	0.254145
572.336884	0.255357
572.691931	0.254535
573.046923	0.256087
573.401860	0.256948
573.756743	0.259016
574.111570	0.257519
574.466342	0.258262
574.821059	0.257291
575.175722	0.260361
575.530330	0.260018
575.884882	0.260219
576.239380	0.262162
576.593823	0.262853
576.948211	0.261930
577.302544	0.265503
577.656823	0.265051
578.011047	0.265238
578.365216	0.266140
578.719330	0.268015
579.073389	0.267405
579.427394	0.269126
579.781344	0.269454
580.135239	0.271137
580.489080	0.270660
580.842866	0.273842
581.196597	0.273750
581.550273	0.272532
581.903895	0.273125
582.257463	0.271588
582.610975	0.274815
582.964434	0.274110
583.317837	0.276778
583.671186	0.277044
584.024481	0.276990
584.377721	0.279511
584.730906	0.280412
585.084037	0.279490
585.437113	0.281546
585.790135	0.280815
586.143103	0.283978
586.496016	0.284987
586.848874	0.282622
587.201679	0.282784
587.554428	0.286257
587.907124	0.284985
588.259765	0.285413
588.612352	0.286144
588.964884	0.290023
589.317362	0.289515
589.669786	0.289517
590.022155	0.288012
590.374470	0.287473
590.726731	0.289637
591.078937	0.294362
591.431090	0.290425
591.783188	0.294889
592.135232	0.295213
592.487222	0.295057
592.839157	0.293250
593.191038	0.295879
593.542866	0.297311
593.894639	0.301070
594.246358	0.299057
594.598022	0.298436
594.949633	0.302046
595.301190	0.302924
595.652692	0.302127
596.004141	0.298591
596.355535	0.305965
596.706876	0.306931
597.058162	0.309185
597.409395	0.306539
597.760573	0.303956
598.111698	0.307511
598.462768	0.308168
598.813785	0.309193
599.164748	0.310841
599.515657	0.310784
599.866511	0.314067
600.217312	0.309309
600.568060	0.314989
600.918753	0.311059
601.269392	0.311990
601.619978	0.315497
601.970510	0.313154
602.320988	0.312902
602.671412	0.311020
603.021783	0.313513
603.372100	0.314763
603.722363	0.314467
604.072572	0.315142
604.422728	0.314992
604.772830	0.317261
605.122878	0.316677
605.472872	0.317159
605.822813	0.315424
606.172701	0.318112
606.522534	0.315569
606.872314	0.315671
607.222041	0.316610
607.571714	0.314693
607.921333	0.316083
608.270899	0.315750
608.620411	0.312422
608.969870	0.316556
609.319276	0.316500
609.668627	0.316341
610.017926	0.315012
610.367171	0.313387
610.716362	0.314640
611.065500	0.314984
611.414585	0.313340
611.763616	0.313808
612.112594	0.314214
612.461518	0.313868
612.810389	0.311039
613.159207	0.313862
613.507971	0.315432
613.856682	0.311488
614.205340	0.312772
614.553945	0.309750
614.902496	0.313460
615.250994	0.311446
615.599439	0.311981
615.947830	0.311696
616.296169	0.312400
616.644454	0.312245
616.992686	0.312157
617.340864	0.309918
617.688990	0.313938
618.037063	0.310317
618.385082	0.312017
618.733048	0.309065
619.080961	0.311465
619.428821	0.310902
619.776628	0.310484
620.124382	0.312492
620.472083	0.312513
620.819731	0.312165
621.167326	0.315896
621.514868	0.315540
621.862357	0.319913
622.209793	0.319477
622.557176	0.321909
622.904506	0.323227
623.251783	0.325112
623.599007	0.327394
623.946179	0.326716
624.293297	0.328512
624.640363	0.332574
624.987376	0.333218
625.334336	0.335936
625.681243	0.338057
626.028097	0.338386
626.374899	0.339719
626.721647	0.339915
627.068343	0.343598
627.414987	0.344157
627.761577	0.346777
628.108115	0.344632
628.454600	0.350140
628.801032	0.347405
629.147412	0.349231
629.493739	0.349584
629.840014	0.352650
630.186236	0.350258
630.532405	0.355911
630.878521	0.353263
631.224585	0.355579
631.570597	0.359148
631.916556	0.357442
632.262462	0.357660
632.608316	0.359897
632.954117	0.360713
633.299866	0.361122
633.645562	0.361990
633.991206	0.366086
634.336797	0.369048
634.682336	0.371301
635.027823	0.372806
635.373257	0.373697
635.718639	0.376962
636.063968	0.376282
636.409245	0.382243
636.754470	0.382545
637.099642	0.385071
637.444762	0.388237
637.789829	0.387151
638.134845	0.391129
638.479808	0.391921
638.824719	0.391526
639.169577	0.395348
639.514383	0.394942
639.859137	0.398471
640.203839	0.398428
640.548489	0.399162
640.893086	0.400281
641.237632	0.402013
641.582125	0.400603
641.926566	0.402075
642.270955	0.401978
642.615292	0.402453
642.959576	0.401668
643.303809	0.402476
643.647990	0.402115
643.992118	0.402317
644.336195	0.405421
644.680219	0.404034
645.024192	0.405169
645.368112	0.398796
645.711981	0.397326
646.055797	0.393165
646.399562	0.395243
646.743274	0.387072
647.086935	0.384459
647.430544	0.384800
647.774101	0.383769
648.117606	0.383578
648.461059	0.383849
648.804460	0.386241
649.147810	0.391140
649.491108	0.393190
649.834354	0.395023
650.177548	0.399988
650.520690	0.405720
650.863781	0.407029
651.206820	0.405880
651.549807	0.410403
651.892742	0.414222
652.235626	0.414449
652.578458	0.415224
652.921238	0.421082
653.263967	0.418743
653.606644	0.422873
653.949269	0.422828
654.291843	0.426428
654.634365	0.423292
654.976836	0.426282
655.319255	0.426590
655.661622	0.428443
656.003938	0.428443
656.346203	0.431601
656.688416	0.428720
657.030577	0.432782
657.372687	0.434315
657.714746	0.435239
658.056753	0.432136
658.398708	0.436185
658.740612	0.437514
659.082465	0.433651
659.424266	0.434108
659.766016	0.433287
660.107715	0.436030
660.449362	0.434881
660.790958	0.435635
661.132503	0.436025
661.473996	0.434087
661.815438	0.433903
662.156829	0.434564
662.498168	0.435782
662.839456	0.436640
663.180693	0.435280
663.521879	0.434597
663.863013	0.435277
664.204097	0.434347
664.545129	0.430938
664.886110	0.431056
665.227040	0.428783
665.567918	0.431056
665.908746	0.429562
666.249522	0.428776
666.590248	0.429786
666.930922	0.427831
667.271545	0.427203
667.612118	0.427211
667.952639	0.428983
668.293109	0.427168
668.633528	0.430148
668.973896	0.430008
669.314213	0.430756
669.654480	0.432456
669.994695	0.432739
670.334859	0.433292
670.674973	0.433564
671.015035	0.433952
671.355047	0.433836
671.695008	0.434640
672.034918	0.436884
672.374777	0.435443
672.714585	0.437373
673.054342	0.436736
673.394049	0.436933
673.733705	0.434188
674.073310	0.435970
674.412864	0.439072
674.752368	0.439507
675.091820	0.439382
675.431223	0.444016
675.770574	0.444250
676.109875	0.447097
676.449125	0.446947
676.788324	0.449288
677.127473	0.454681
677.466571	0.454326
677.805619	0.455900
678.144616	0.457314
678.483562	0.458709
678.822458	0.460604
679.161303	0.462394
679.500098	0.462380
679.838842	0.464389
680.177535	0.463800
680.516179	0.462714
680.854771	0.462036
681.193314	0.454528
681.531805	0.446885
681.870247	0.434610
682.208638	0.427218
682.546978	0.426144
682.885268	0.428228
683.223508	0.434431
683.561697	0.437855
683.899836	0.440375
684.237925	0.443829
684.575963	0.446305
684.913951	0.449883
685.251889	0.445218
685.589776	0.447254
685.927614	0.449996
686.265401	0.444222
686.603137	0.445501
686.940824	0.439338
687.278460	0.437738
687.616046	0.436949
687.953582	0.431460
688.291068	0.433358
688.628504	0.429474
688.965889	0.431387
689.303224	0.435662
689.640510	0.439530
689.977745	0.445020
690.314930	0.452841
690.652065	0.457619
690.989150	0.464783
691.326185	0.471575
691.663170	0.476145
692.000105	0.483292
692.336990	0.490522
692.673825	0.492550
693.010610	0.499875
693.347345	0.505151
693.684030	0.506710
694.020665	0.511444
694.357251	0.519993
694.693786	0.519401
695.030272	0.524786
695.366707	0.527334
695.703093	0.530515
696.039429	0.529064
696.375716	0.530540
696.711952	0.533306
697.048139	0.535421
697.384276	0.536919
697.720363	0.535705
698.056400	0.535466
698.392388	0.540509
698.728326	0.542961
699.064214	0.545887
699.400053	0.546742
699.735842	0.549652
700.071581	0.553391
700.407270	0.556085
700.742910	0.558367
701.078501	0.564641
701.414042	0.565132
701.749533	0.568652
702.084974	0.577331
702.420366	0.569700
702.755709	0.577580
703.091002	0.584917
703.426246	0.578445
703.761440	0.585117
704.096584	0.588482
704.431679	0.586084
704.766725	0.588147
705.101721	0.589720
705.436668	0.586002
705.771565	0.592410
706.106413	0.589193
706.441212	0.584867
706.775961	0.583050
707.110661	0.586176
707.445311	0.582507
707.779913	0.579774
708.114465	0.578577
708.448967	0.574637
708.783421	0.567156
709.117825	0.561555
709.452180	0.561571
709.786485	0.555935
710.120742	0.545394
710.454949	0.547506
710.789107	0.539724
711.123216	0.529840
711.457275	0.532215
711.791286	0.522839
712.125247	0.522066
712.459159	0.532782
712.793023	0.525047
713.126837	0.530169
713.460602	0.530037
713.794318	0.539093
714.127985	0.537972
714.461602	0.548083
714.795171	0.551951
715.128691	0.559675
715.462162	0.566626
715.795584	0.572463
716.128957	0.575589
716.462281	0.582107
716.795556	0.585368
717.128782	0.590785
717.461960	0.600422
717.795088	0.598392
718.128167	0.604597
718.461198	0.612887
718.794180	0.614012
719.127113	0.617334
719.459997	0.620044
719.792833	0.627284
720.125619	0.628355
720.458357	0.633574
720.791046	0.633092
721.123686	0.636587
721.456278	0.643572
721.788821	0.641128
722.121315	0.644591
722.453761	0.648699
722.786158	0.646949
723.118506	0.643494
723.450805	0.651631
723.783056	0.647284
724.115259	0.645272
724.447412	0.644401
724.779518	0.645591
725.111574	0.645059
725.443582	0.640448
725.775542	0.642421
726.107453	0.634152
726.439315	0.633954
726.771129	0.633147
727.102895	0.625596
727.434612	0.619279
727.766281	0.617230
728.097901	0.616320
728.429473	0.616156
728.760996	0.614831
729.092471	0.614862
729.423897	0.618296
729.755276	0.617611
730.086606	0.617576
730.417887	0.612209
730.749120	0.602792
731.080305	0.594150
731.411442	0.589639
731.742530	0.594625
732.073570	0.593647
732.404562	0.585774
732.735506	0.587485
733.066401	0.592286
733.397249	0.601655
733.728048	0.612707
734.058798	0.625440
734.389501	0.635917
734.720156	0.646392
735.050762	0.653985
735.381320	0.654676
735.711831	0.664214
736.042293	0.668267
736.372707	0.664240
736.703073	0.669153
737.033391	0.671428
737.363661	0.667681
737.693883	0.663725
738.024056	0.662422
738.354182	0.663430
738.684260	0.652362
739.014290	0.647638
739.344272	0.649538
739.674207	0.642082
740.004093	0.641795
740.333931	0.642366
740.663722	0.642535
740.993464	0.642622
741.323159	0.646434
741.652806	0.651886
741.982405	0.657279
742.311956	0.660440
742.641460	0.663264
742.970915	0.666671
743.300323	0.673944
743.629683	0.681445
743.958996	0.682728
744.288260	0.687407
744.617477	0.693722
744.946647	0.694262
745.275768	0.700494
745.604842	0.699876
745.933869	0.710193
746.262847	0.709838
746.591778	0.704376
746.920662	0.710002
747.249498	0.717147
747.578286	0.706985
747.907027	0.703203
748.235720	0.704692
748.564365	0.699450
748.892963	0.699748
749.221514	0.702786
749.550017	0.707762
749.878473	0.707106
750.206881	0.714164
750.535242	0.714942
750.863555	0.715045
751.191821	0.716846
751.520039	0.718959
751.848210	0.724356
752.176334	0.716423
752.504411	0.715716
752.832440	0.723256
753.160421	0.727547
753.488356	0.725821
753.816243	0.723275
754.144082	0.731539
754.471875	0.734169
754.799620	0.731295
755.127318	0.731642
755.454969	0.731766
755.782572	0.731017
756.110129	0.736260
756.437638	0.739047
756.765100	0.735134
757.092515	0.733851
757.419882	0.732135
757.747203	0.737404
758.074477	0.736866
758.401703	0.733329
758.728882	0.728877
759.056014	0.728406
759.383099	0.727819
759.710138	0.728011
760.037129	0.724141
760.364073	0.718399
760.690970	0.720646
761.017820	0.726612
761.344623	0.722883
761.671379	0.713067
761.998088	0.701616
762.324751	0.678523
762.651366	0.636947
762.977935	0.569627
763.304456	0.517803
763.630931	0.508333
763.957359	0.547518
764.283740	0.592283
764.610074	0.618815
764.936362	0.650109
765.262602	0.677055
765.588796	0.698201
765.914943	0.716114
766.241044	0.734110
766.567097	0.740212
766.893104	0.749933
767.219064	0.757842
767.544978	0.763880
767.870845	0.777270
768.196665	0.780578
768.522438	0.778808
768.848165	0.780562
769.173846	0.788994
769.499479	0.793293
769.825066	0.796327
770.150607	0.802443
770.476101	0.797845
770.801548	0.797750
771.126949	0.809793
771.452303	0.812323
771.777611	0.813502
772.102872	0.812215
772.428087	0.816694
772.753256	0.820624
773.078378	0.822907
773.403453	0.831138
773.728482	0.835459
774.053465	0.829597
774.378401	0.832823
774.703291	0.841964
775.028135	0.841182
775.352932	0.843758
775.677683	0.845883
776.002388	0.846865
776.327046	0.844966
776.651658	0.848908
776.976224	0.851652
777.300743	0.852370
777.625216	0.854356
777.949643	0.856563
778.274024	0.857050
778.598359	0.857515
778.922647	0.856947
779.246889	0.857142
779.571086	0.861539
779.895236	0.863933
780.219339	0.861701
780.543397	0.857720
780.867409	0.856556
781.191374	0.858458
781.515294	0.859428
781.839167	0.858918
782.162995	0.862256
782.486776	0.859478
782.810511	0.859894
783.134201	0.864122
783.457844	0.861162
783.781441	0.863657
784.104993	0.870168
784.428498	0.869875
784.751958	0.866269
785.075372	0.867694
785.398739	0.872414
785.722061	0.868314
786.045337	0.863497
786.368568	0.868759
786.691752	0.871277
787.014891	0.856898
787.337983	0.847073
787.661030	0.840755
787.984031	0.824018
788.306987	0.809997
788.629897	0.812227
788.952760	0.816707
789.275579	0.821086
789.598351	0.835208
789.921078	0.849720
790.243759	0.850923
790.566395	0.856122
790.888984	0.863462
791.211529	0.868199
791.534027	0.872857
791.856480	0.874104
792.178888	0.878538
792.501249	0.881524
792.823566	0.882163
793.145836	0.882894
793.468062	0.884268
793.790241	0.885244
794.112375	0.883034
794.434464	0.878030
794.756507	0.877053
795.078505	0.877529
795.400457	0.872414
795.722364	0.859857
796.044226	0.852638
796.366042	0.850863
796.687812	0.855025
797.009538	0.851077
797.331218	0.854751
797.652852	0.859561
797.974442	0.864347
798.295986	0.863852
798.617484	0.866249
798.938938	0.870901
799.260346	0.874540
799.581709	0.877903
799.903026	0.879766
800.224299	0.879453
800.545526	0.883734
800.866708	0.888199
801.187845	0.892012
801.508936	0.891557
801.829983	0.890129
802.150984	0.893120
802.471940	0.897478
802.792851	0.896366
803.113717	0.897947
803.434538	0.896281
803.755314	0.898590
804.076045	0.899880
804.396731	0.899859
804.717372	0.898927
805.037967	0.900715
805.358518	0.900026
805.679024	0.896815
805.999485	0.896579
806.319901	0.896643
806.640272	0.898407
806.960598	0.896256
807.280879	0.893370
807.601115	0.891797
807.921306	0.896169
808.241453	0.896517
808.561554	0.893831
808.881611	0.893442
809.201623	0.895001
809.521590	0.896051
809.841513	0.897361
810.161390	0.896222
810.481223	0.897166
810.801011	0.900670
811.120755	0.902337
811.440453	0.900581
811.760107	0.900311
812.079716	0.900430
812.399281	0.903904
812.718801	0.906036
813.038276	0.906983
813.357707	0.906549
813.677093	0.902931
813.996434	0.907225
814.315731	0.908708
814.634983	0.910008
814.954191	0.908147
815.273354	0.905026
815.592473	0.900556
815.911547	0.901464
816.230577	0.898273
816.549562	0.896542
816.868502	0.896978
817.187399	0.893350
817.506250	0.887655
817.825058	0.889484
818.143821	0.885956
818.462539	0.881634
818.781213	0.873140
819.099843	0.861789
819.418429	0.845466
819.736970	0.829292
820.055466	0.808846
820.373919	0.782654
820.692327	0.750841
821.010691	0.714655
821.329011	0.638195
821.647286	0.521164
821.965517	0.407531
822.283704	0.364585
822.601847	0.365861
822.919945	0.401261
823.237999	0.435427
823.556010	0.482606
823.873976	0.538429
824.191897	0.589193
824.509775	0.631907
824.827609	0.677890
825.145398	0.699929
825.463144	0.702888
825.780845	0.686520
826.098502	0.666553
826.416116	0.621660
826.733685	0.576472
827.051210	0.568174
827.368692	0.583446
827.686129	0.620365
828.003522	0.674627
828.320872	0.721431
828.638177	0.764736
828.955439	0.798376
829.272656	0.820441
829.589830	0.837656
829.906960	0.853406
830.224046	0.866105
830.541088	0.877764
830.858086	0.879956
831.175041	0.886641
831.491952	0.885965
831.808819	0.882983
832.125642	0.874990
832.442421	0.861746
832.759157	0.839884
833.075849	0.794089
833.392497	0.728876
833.709101	0.687630
834.025662	0.697674
834.342179	0.729442
834.658653	0.769189
834.975083	0.805313
835.291469	0.831866
835.607811	0.854101
835.924110	0.870124
836.240366	0.887040
836.556578	0.900117
836.872746	0.907734
837.188871	0.914391
837.504952	0.919268
837.820990	0.923019
838.136984	0.926708
838.452935	0.930665
838.768842	0.932049
839.084706	0.925329
839.400526	0.897727
839.716303	0.858361
840.032037	0.835492
840.347727	0.839059
840.663373	0.857627
840.978977	0.878444
841.294537	0.902298
841.610054	0.918133
841.925527	0.925516
842.240957	0.933076
842.556344	0.940361
842.871687	0.945681
843.186987	0.950599
843.502244	0.950136
843.817458	0.951009
844.132629	0.954958
844.447756	0.960634
844.762840	0.960409
845.077881	0.959843
845.392879	0.959987
845.707833	0.963227
846.022745	0.963730
846.337613	0.963572
846.652438	0.966219
846.967221	0.963947
847.281960	0.965806
847.596656	0.967237
847.911309	0.966285
848.225919	0.967695
848.540485	0.968284
848.855009	0.968840
849.169490	0.969109
849.483928	0.969826
849.798323	0.970030
850.112675	0.968899
850.426984	0.969329
850.741251	0.970342
851.055474	0.970226
851.369654	0.967997
851.683792	0.969973
851.997887	0.970338
852.311938	0.970706
852.625947	0.969326
852.939914	0.968488
853.253837	0.969076
853.567718	0.970921
853.881555	0.970810
854.195350	0.968697
854.509103	0.969597
854.822812	0.970458
855.136479	0.970436
855.450103	0.970646
855.763685	0.968932
856.077224	0.969392
856.390720	0.970353
856.704173	0.970843
857.017584	0.968661
857.330953	0.966624
857.644278	0.968858
857.957561	0.968033
858.270802	0.969296
858.584000	0.967587
858.897155	0.966224
859.210268	0.967331
859.523339	0.968679
859.836367	0.970402
860.149352	0.971177
860.462295	0.967423
860.775195	0.969363
861.088054	0.968567
861.400869	0.969425
861.713642	0.970398
862.026373	0.970787
862.339062	0.970608
862.651708	0.967531
862.964312	0.967268
863.276873	0.969938
863.589392	0.968703
863.901869	0.966387
864.214303	0.964575
864.526696	0.964033
864.839045	0.963419
865.151353	0.961223
865.463619	0.963147
865.775842	0.962645
866.088023	0.961811
866.400162	0.961921
866.712258	0.961852
867.024313	0.963316
867.336325	0.963184
867.648296	0.964572
867.960224	0.962631
868.272110	0.960818
868.583954	0.964426
868.895755	0.963948
869.207515	0.961536
869.519233	0.958908
869.830909	0.960585
870.142542	0.963674
870.454134	0.961689
870.765684	0.961226
871.077191	0.957229
871.388657	0.959385
871.700081	0.957918
872.011463	0.959305
872.322803	0.957007
872.634101	0.957143
872.945357	0.954386
873.256571	0.953629
873.567744	0.952182
873.878874	0.954050
874.189963	0.952540
874.501010	0.950727
874.812015	0.949702
875.122979	0.951587
875.433900	0.952903
875.744780	0.953767
876.055618	0.951070
876.366415	0.948955
876.677169	0.950130
876.987882	0.951381
877.298554	0.951803
877.609183	0.947533
877.919771	0.944836
878.230317	0.942386
878.540822	0.941062
878.851285	0.934512
879.161707	0.926048
879.472087	0.914559
879.782425	0.897919
880.092722	0.863470
880.402977	0.811909
880.713191	0.749803
881.023363	0.690205
881.333494	0.655814
881.643583	0.628974
881.953631	0.629138
882.263637	0.657016
882.573602	0.696530
882.883526	0.721963
883.193408	0.746386
883.503248	0.769162
883.813048	0.796773
884.122806	0.826705
884.432522	0.850120
884.742197	0.869604
885.051831	0.882205
885.361424	0.890255
885.670975	0.902731
885.980485	0.912717
886.289954	0.918817
886.599382	0.924787
886.908768	0.928351
887.218113	0.933300
887.527417	0.939022
887.836680	0.941443
888.145901	0.943106
888.455082	0.945308
888.764221	0.949953
889.073319	0.953821
889.382376	0.952454
889.691392	0.953164
890.000366	0.952678
890.309300	0.953598
890.618193	0.953206
890.927044	0.951995
891.235855	0.951328
891.544625	0.951954
891.853353	0.951396
892.162041	0.949329
892.470687	0.943376
892.779293	0.937969
893.087858	0.933537
893.396381	0.925464
893.704864	0.912362
894.013306	0.888344
894.321707	0.861649
894.630068	0.847235
894.938387	0.841576
895.246665	0.842790
895.554903	0.855495
895.863100	0.869695
896.171256	0.886623
896.479371	0.905682
896.787446	0.919308
897.095480	0.923725
897.403473	0.927843
897.711425	0.932816
898.019336	0.940643
898.327207	0.942926
898.635038	0.944726
898.942827	0.945244
899.250576	0.948869
899.558284	0.952445
899.865952	0.953228
900.173579	0.955123
900.481165	0.955773
900.788711	0.959206
901.096216	0.961025
901.403681	0.961672
901.711105	0.961898
902.018489	0.964066
902.325832	0.961939
902.633135	0.961700
902.940397	0.955501
903.247619	0.944466
903.554800	0.917312
903.861941	0.877479
904.169041	0.841332
904.476101	0.823716
904.783121	0.826071
905.090100	0.841507
905.397039	0.862827
905.703938	0.885341
906.010796	0.905344
906.317614	0.922323
906.624391	0.934342
906.931129	0.944116
907.237826	0.951285
907.544483	0.959555
907.851099	0.961938
908.157675	0.967876
908.464211	0.969711
908.770707	0.971771
909.077163	0.974656
909.383578	0.974784
909.689954	0.975129
909.996289	0.976523
910.302584	0.977268
910.608839	0.979540
910.915054	0.978543
911.221229	0.977391
911.527363	0.977112
911.833458	0.977589
912.139513	0.976576
912.445527	0.975389
912.751502	0.973895
913.057436	0.972388
913.363331	0.969822
913.669186	0.965505
913.975000	0.961125
914.280775	0.955616
914.586510	0.948832
914.892205	0.934728
915.197859	0.914435
915.503475	0.885318
915.809050	0.866169
916.114585	0.859924
916.420081	0.857896
916.725536	0.854683
917.030952	0.863022
917.336328	0.876375
917.641665	0.891044
917.946961	0.906209
918.252218	0.918008
918.557435	0.926583
918.862612	0.935788
919.167750	0.941723
919.472848	0.946970
919.777906	0.952411
920.082925	0.959034
920.387904	0.961477
920.692843	0.963194
920.997743	0.963504
921.302603	0.967026
921.607423	0.968626
921.912204	0.971678
922.216946	0.971900
922.521647	0.973729
922.826310	0.975320
923.130932	0.976743
923.435516	0.979225
923.740059	0.980181
924.044564	0.978683
924.349028	0.980913
924.653454	0.982996
924.957840	0.985325
925.262186	0.984696
925.566493	0.984765
925.870761	0.984134
926.174989	0.986665
926.479178	0.988887
926.783328	0.988877
927.087438	0.989194
927.391509	0.987060
927.695541	0.990364
927.999533	0.989960
928.303486	0.990004
928.607400	0.991076
928.911275	0.989548
929.215110	0.991608
929.518906	0.991420
929.822663	0.989631
930.126381	0.991621
930.430060	0.991125
930.733699	0.990513
931.037299	0.990378
931.340861	0.991184
931.644383	0.990535
931.947866	0.989688
932.251309	0.989858
932.554714	0.991599
932.858080	0.991548
933.161407	0.989830
933.464694	0.990718
933.767943	0.990817
934.071153	0.990807
934.374323	0.991158
934.677455	0.991929
934.980548	0.991817
935.283602	0.990651
935.586617	0.991908
935.889593	0.990252
936.192530	0.990728
936.495428	0.990671
936.798287	0.992233
937.101108	0.990976
937.403890	0.988401
937.706632	0.989239
938.009336	0.987014
938.312002	0.986349
938.614628	0.984150
938.917216	0.983152
939.219765	0.982003
939.522275	0.983698
939.824747	0.983362
940.127179	0.983042
940.429573	0.985160
940.731929	0.984689
941.034246	0.984984
941.336524	0.984826
941.638763	0.985301
941.940964	0.987100
942.243126	0.987077
942.545250	0.987355
942.847335	0.986826
943.149381	0.988458
943.451389	0.988207
943.753359	0.988378
944.055290	0.991163
944.357182	0.990014
944.659036	0.987991
944.960851	0.989773
945.262628	0.989850
945.564367	0.990583
945.866067	0.989823
946.167729	0.990020
946.469352	0.990230
946.770937	0.988744
947.072484	0.990731
947.373992	0.990615
947.675462	0.989793
947.976893	0.990351
948.278286	0.990556
948.579641	0.991633
948.880958	0.990889
949.182236	0.992072
949.483476	0.991329
949.784678	0.991344
950.085841	0.990798
950.386967	0.991920
950.688054	0.990937
950.989103	0.991702
951.290114	0.989389
951.591087	0.989448
951.892021	0.990299
952.192917	0.990411
952.493776	0.989023
952.794596	0.987823
953.095378	0.988060
953.396122	0.989377
953.696828	0.986923
953.997496	0.989618
954.298126	0.990328
954.598718	0.990856
954.899272	0.990337
955.199788	0.991250
955.500266	0.991939
955.800706	0.993744
956.101108	0.993682
956.401472	0.993950
956.701798	0.994995
957.002087	0.993264
957.302337	0.994439
957.602550	0.995909
957.902724	0.994849
958.202861	0.995642
958.502960	0.995883
958.803022	0.994991
959.103045	0.995801
959.403031	0.995589
959.702979	0.995794
960.002889	0.996391
960.302762	0.995499
960.602596	0.996955
960.902393	0.993976
961.202153	0.996473
961.501875	0.998080
961.801559	0.995723
962.101205	0.995321
962.400814	0.997428
962.700385	0.997872
962.999918	0.997003
963.299414	0.997072
963.598873	0.996338
963.898293	0.996459
964.197677	0.996325
964.497022	0.996007
964.796331	0.997454
965.095601	0.997518
965.394835	0.996081
965.694030	0.996262
965.993189	0.998074
966.292309	0.996321
966.591393	0.997400
966.890439	0.997639
967.189447	0.996616
967.488419	0.997872
967.787353	0.995175
968.086249	0.996431
968.385108	0.997176
968.683930	0.997303
968.982714	0.997792
969.281462	0.998672
969.580172	0.996681
969.878844	0.997270
970.177480	0.996488
970.476078	0.997124
970.774639	0.997901
971.073162	0.998386
971.371649	0.997133
971.670098	0.996993
971.968510	0.998063
972.266885	0.996335
972.565223	0.997219
972.863524	0.997244
973.161788	0.996057
973.460014	0.997824
973.758204	0.996887
974.056356	0.995552
974.354471	0.994225
974.652550	0.995756
974.950591	0.997302
975.248595	0.997094
975.546563	0.997307
975.844493	0.998160
976.142386	0.997038
976.440243	0.997559
976.738062	0.997429
977.035845	0.998490
977.333590	0.997587
977.631299	0.997471
977.928971	0.998168
978.226606	0.995663
978.524204	0.996719
978.821765	0.997388
979.119290	0.997130
979.416777	0.996755
979.714228	0.998037
980.011642	0.995531
980.309020	0.998005
980.606360	0.996586
980.903664	0.998890
981.200931	0.996307
981.498162	0.995397
981.795356	0.994721
982.092513	0.994474
982.389633	0.995067
982.686717	0.991267
982.983764	0.991895
983.280775	0.991195
983.577749	0.990269
983.874686	0.991225
984.171587	0.991769
984.468451	0.993369
984.765279	0.994530
985.062070	0.994477
985.358824	0.993939
985.655543	0.995450
985.952224	0.995924
986.248869	0.996452
986.545478	0.997809
986.842050	0.998659
987.138586	0.996665
987.435086	0.998218
987.731549	0.997979
988.027975	0.998109
988.324366	0.998110
988.620719	0.998275
988.917037	0.996327
989.213318	0.998317
989.509563	0.998617
989.805772	0.998272
990.101944	0.999620
990.398080	0.997471
990.694180	0.997507
990.990244	0.996972
991.286271	0.998463
991.582262	0.998497
991.878217	0.998123
992.174136	0.999095
992.470019	0.999617
992.765865	0.997710
993.061676	0.998156
993.357450	0.997348
993.653188	0.997295
993.948890	0.997469
994.244556	0.997508
994.540186	0.998058
994.835780	0.996435
995.131337	0.997828
995.426859	0.997114
995.722345	0.998382
996.017795	0.996262
996.313208	0.996982
996.608586	0.995725
996.903928	0.997463
997.199234	0.996952
997.494504	0.997335
997.789738	0.995665
998.084936	0.996874
998.380099	0.997981
998.675225	0.998035
998.970316	0.998229
999.265371	1.000164
999.560390	0.997829
999.855373	0.998474
1000.150320	0.997918
1000.445232	0.997865
1000.740108	0.998595
1001.034948	0.999200
1001.329752	0.998622
1001.624521	0.998970
1001.919254	0.999656
1002.213951	0.998173
1002.508613	0.997630
1002.803239	0.999786
1003.097829	1.000425
1003.392384	0.998339
1003.686903	0.998122
1003.981386	0.999049
1004.275834	0.999608
1004.570246	0.998315
1004.864623	0.998530
1005.158964	0.999517
1005.453270	0.998874
1005.747540	0.998126
1006.041775	0.999244
1006.335974	1.000412
1006.630138	0.999609
1006.924266	1.000106
1007.218359	1.001468
1007.512416	1.000084
1007.806438	0.999697
1008.100425	0.998360
1008.394376	0.999336
1008.688292	0.999050
1008.982172	1.001409
1009.276017	0.999491
1009.569827	0.998952
1009.863602	0.999005
1010.157341	1.000407
1010.451045	0.999429
1010.744714	0.999524
1011.038347	1.000077
1011.331945	0.999437
1011.625508	0.998233
1011.919036	1.000439
1012.212528	0.998313
1012.505986	0.998477
1012.799408	0.999513
1013.092795	1.000011
1013.386147	0.998623
1013.679464	0.998408
1013.972745	0.997225
1014.265992	0.997852
1014.559204	0.999825
1014.852380	1.000012
1015.145521	1.000521
1015.438628	0.999557
1015.731699	0.999643
1016.024736	1.000042
1016.317737	0.999248
1016.610703	0.999263
1016.903635	0.999996
1017.196531	0.999820
1017.489393	1.000362
1017.782219	0.999439
1018.075011	0.999097
1018.367768	0.999285
1018.660490	0.998663
1018.953177	0.998663
1019.245829	0.998663
