Dividing Wavelength (nm)	Counts (n)	Blue Motor Position (mm): 0.000000	Red Motor Position (mm): 28.800000	
326.493990	1.000430
326.888308	1.000430
327.282561	1.000430
327.676750	0.999542
328.070874	0.999206
328.464933	1.000155
328.858929	0.999272
329.252859	0.999661
329.646726	0.999295
330.040528	0.999422
330.434265	0.999237
330.827938	1.000760
331.221547	1.000044
331.615091	1.000644
332.008571	1.000359
332.401986	0.999739
332.795338	0.999576
333.188625	0.998614
333.581847	0.999666
333.975006	0.999278
334.368100	0.999205
334.761129	0.999787
335.154095	1.000847
335.546996	0.998149
335.939833	0.994016
336.332606	0.995223
336.725315	0.994984
337.117960	0.995999
337.510540	0.993932
337.903056	0.995851
338.295508	0.994428
338.687896	0.995288
339.080220	0.994933
339.472480	0.994802
339.864676	0.994719
340.256807	0.995546
340.648875	0.995774
341.040879	0.994925
341.432818	0.994719
341.824694	0.994802
342.216506	0.995582
342.608253	0.994512
342.999937	0.994487
343.391557	0.994273
343.783113	0.994741
344.174605	0.994880
344.566033	0.995802
344.957397	0.993432
345.348697	0.994413
345.739934	0.994550
346.131106	0.994567
346.522215	0.994820
346.913260	0.995504
347.304241	0.994993
347.695159	0.993067
348.086012	0.993430
348.476802	0.994528
348.867528	0.995000
349.258191	0.993304
349.648789	0.995685
350.039324	0.994208
350.429796	0.995657
350.820203	0.996231
351.210548	0.995723
351.600828	0.995248
351.991045	0.995843
352.381198	0.993367
352.771288	0.995198
353.161314	0.994944
353.551276	0.996678
353.941175	0.994792
354.331010	0.995208
354.720782	0.996728
355.110490	0.994781
355.500135	0.995583
355.889717	0.993773
356.279235	0.995591
356.668689	0.993698
357.058080	0.994487
357.447408	0.996486
357.836672	0.995780
358.225873	0.996303
358.615010	0.994976
359.004084	0.996423
359.393095	0.994345
359.782043	0.995359
360.170927	0.996364
360.559748	0.995147
360.948505	0.994470
361.337199	0.995441
361.725830	0.995778
362.114398	0.994600
362.502903	0.994803
362.891344	0.995480
363.279722	0.995465
363.668037	0.994909
364.056289	0.995081
364.444478	0.996124
364.832603	0.995982
365.220665	0.994238
365.608665	0.994917
365.996601	0.994464
366.384474	0.995535
366.772284	0.995025
367.160031	0.994307
367.547715	0.996311
367.935336	0.995955
368.322893	0.994598
368.710388	0.994529
369.097820	0.996158
369.485189	0.994420
369.872495	0.994566
370.259738	0.992803
370.646918	0.996319
371.034035	0.995796
371.421090	0.994388
371.808081	0.995319
372.195010	0.996493
372.581875	0.996330
372.968678	0.994664
373.355418	0.995152
373.742096	0.994123
374.128710	0.996937
374.515262	0.994510
374.901751	0.995819
375.288177	0.995012
375.674540	0.996458
376.060841	0.995440
376.447079	0.996129
376.833254	0.996643
377.219367	0.995568
377.605417	0.995795
377.991404	0.996250
378.377329	0.995675
378.763191	0.995295
379.148991	0.996375
379.534727	0.996818
379.920402	0.996287
380.306013	0.997046
380.691563	0.996937
381.077049	0.995408
381.462474	0.996956
381.847835	0.995718
382.233134	0.996575
382.618371	0.996296
383.003545	0.997098
383.388657	0.996428
383.773706	0.997116
384.158693	0.997069
384.543618	0.997349
384.928480	0.996404
385.313280	0.996319
385.698017	0.997747
386.082692	0.997052
386.467305	0.996968
386.851856	0.997214
387.236344	0.996805
387.620770	0.995845
388.005133	0.997794
388.389435	0.998630
388.773674	0.997532
389.157851	0.997665
389.541965	0.997085
389.926018	0.996239
390.310008	0.998253
390.693936	0.997183
391.077802	0.997526
391.461606	0.995416
391.845348	0.997474
392.229027	0.998037
392.612645	0.997325
392.996200	0.999049
393.379694	0.996910
393.763125	0.998691
394.146494	0.997101
394.529801	0.997669
394.913047	0.998268
395.296230	0.997858
395.679351	0.997578
396.062410	0.997429
396.445408	0.997865
396.828343	0.998020
397.211217	0.996763
397.594028	0.997810
397.976778	0.997544
398.359466	0.997894
398.742092	0.997060
399.124656	0.997450
399.507158	0.997485
399.889598	0.997961
400.271977	0.997268
400.654294	0.998557
401.036549	0.998351
401.418742	0.997930
401.800874	0.997545
402.182944	0.997512
402.564952	0.998047
402.946898	0.998101
403.328783	0.998005
403.710606	0.997871
404.092367	0.997430
404.474067	0.998038
404.855705	0.998071
405.237282	0.998325
405.618797	0.997821
406.000250	0.997657
406.381642	0.998208
406.762972	0.997555
407.144240	0.998624
407.525447	0.998189
407.906593	0.997751
408.287677	0.997779
408.668700	0.998010
409.049661	0.997028
409.430560	0.998576
409.811399	0.998360
410.192176	0.997914
410.572891	0.997895
410.953545	0.997662
411.334138	0.997173
411.714669	0.997736
412.095139	0.998083
412.475547	0.999507
412.855894	0.999238
413.236180	0.998702
413.616405	0.998171
413.996568	0.998983
414.376670	0.998122
414.756711	0.997912
415.136691	0.998749
415.516609	0.997920
415.896466	0.998621
416.276262	0.997230
416.655997	0.998620
417.035670	0.997570
417.415283	0.998867
417.794834	0.999305
418.174324	0.998115
418.553753	0.997788
418.933121	0.998664
419.312428	0.998424
419.691674	0.998460
420.070859	0.998337
420.449983	0.998140
420.829045	0.997751
421.208047	0.999626
421.586988	0.999201
421.965867	0.999076
422.344686	0.998517
422.723444	0.998748
423.102141	0.998341
423.480777	0.999130
423.859352	0.998738
424.237866	0.998566
424.616319	0.997831
424.994712	0.998241
425.373044	0.998592
425.751314	0.999207
426.129524	0.997994
426.507673	0.998467
426.885762	0.998745
427.263789	0.998774
427.641756	0.999246
428.019662	0.998867
428.397508	0.998360
428.775292	0.997422
429.153016	0.998030
429.530679	0.999308
429.908282	0.999297
430.285824	0.998860
430.663305	0.998447
431.040726	0.998067
431.418086	0.999755
431.795385	0.998227
432.172624	0.997907
432.549802	0.999361
432.926920	0.999253
433.303977	0.998290
433.680974	0.998991
434.057910	0.998352
434.434786	0.998571
434.811601	0.997712
435.188355	0.998510
435.565050	0.998349
435.941683	0.998414
436.318257	1.000121
436.694770	0.997947
437.071222	0.999246
437.447614	0.998469
437.823946	0.998526
438.200218	0.998988
438.576429	0.999021
438.952580	0.999150
439.328670	0.998267
439.704700	0.998637
440.080670	0.999217
440.456580	0.998437
440.832429	0.998116
441.208218	0.998076
441.583947	0.998594
441.959616	0.998586
442.335224	0.998193
442.710773	0.999304
443.086261	0.998505
443.461689	0.998096
443.837057	0.999660
444.212365	0.999052
444.587612	0.997905
444.962800	0.997529
445.337927	0.998501
445.712995	0.997995
446.088002	0.999074
446.462949	0.999135
446.837837	0.998778
447.212664	0.998386
447.587431	0.998132
447.962139	0.998253
448.336786	0.998453
448.711374	0.998869
449.085901	0.997998
449.460369	0.998718
449.834776	0.998189
450.209124	0.998435
450.583412	0.998401
450.957640	0.998070
451.331808	0.997869
451.705917	0.997951
452.079965	0.997071
452.453954	0.997397
452.827883	0.996797
453.201752	0.996855
453.575562	0.996998
453.949311	0.996951
454.323001	0.995772
454.696632	0.995194
455.070202	0.995363
455.443713	0.994590
455.817164	0.994162
456.190556	0.994297
456.563888	0.992660
456.937160	0.992405
457.310373	0.992086
457.683526	0.991974
458.056619	0.991406
458.429653	0.990544
458.802628	0.988806
459.175542	0.988124
459.548398	0.986558
459.921194	0.985498
460.293930	0.985082
460.666607	0.982156
461.039224	0.979725
461.411782	0.978358
461.784280	0.977663
462.156719	0.978112
462.529099	0.976511
462.901419	0.975849
463.273680	0.973107
463.645882	0.972024
464.018024	0.970580
464.390106	0.968312
464.762130	0.966754
465.134094	0.962013
465.505999	0.955600
465.877845	0.949581
466.249631	0.948641
466.621358	0.947478
466.993026	0.946309
467.364634	0.944878
467.736184	0.942634
468.107674	0.940122
468.479105	0.934996
468.850477	0.933927
469.221790	0.931715
469.593043	0.929306
469.964238	0.925841
470.335373	0.921441
470.706449	0.917014
471.077467	0.913934
471.448425	0.902499
471.819324	0.894647
472.190164	0.891287
472.560945	0.891933
472.931667	0.889700
473.302330	0.885773
473.672934	0.882445
474.043479	0.875825
474.413965	0.869958
474.784393	0.864742
475.154761	0.858506
475.525070	0.852158
475.895321	0.848256
476.265513	0.841020
476.635645	0.834884
477.005719	0.827313
477.375734	0.820271
477.745691	0.812730
478.115588	0.805141
478.485427	0.796379
478.855207	0.785237
479.224928	0.772039
479.594591	0.761663
479.964194	0.756041
480.333739	0.750735
480.703226	0.742799
481.072653	0.735499
481.442022	0.724514
481.811333	0.715811
482.180584	0.710569
482.549777	0.703265
482.918912	0.697368
483.287988	0.688895
483.657005	0.681575
484.025964	0.676190
484.394864	0.667552
484.763706	0.659072
485.132489	0.653903
485.501213	0.646414
485.869879	0.638427
486.238487	0.630318
486.607036	0.623387
486.975527	0.616033
487.343959	0.606761
487.712333	0.598145
488.080648	0.592073
488.448905	0.582860
488.817104	0.575937
489.185244	0.565503
489.553326	0.555189
489.921350	0.542137
490.289315	0.523453
490.657222	0.514076
491.025070	0.506555
491.392861	0.500728
491.760593	0.496797
492.128267	0.492341
492.495883	0.488147
492.863440	0.484871
493.230939	0.481789
493.598380	0.475420
493.965763	0.469614
494.333088	0.465830
494.700354	0.458601
495.067563	0.452806
495.434713	0.447558
495.801805	0.440149
496.168839	0.435001
496.535815	0.428969
496.902733	0.424324
497.269593	0.418477
497.636395	0.411854
498.003139	0.405447
498.369825	0.403342
498.736453	0.394147
499.103023	0.390326
499.469535	0.384746
499.835989	0.379880
500.202385	0.375299
500.568723	0.373542
500.935003	0.365028
501.301226	0.362707
501.667390	0.354389
502.033497	0.348031
502.399546	0.346491
502.765537	0.343300
503.131470	0.337619
503.497345	0.330117
503.863163	0.334575
504.228923	0.323997
504.594625	0.319477
504.960269	0.320670
505.325856	0.312790
505.691385	0.313186
506.056856	0.306876
506.422270	0.303048
506.787625	0.302733
507.152924	0.297490
507.518164	0.294961
507.883347	0.293654
508.248472	0.292399
508.613540	0.285488
508.978550	0.285661
509.343503	0.283468
509.708398	0.279007
510.073236	0.274664
510.438016	0.272495
510.802738	0.271414
511.167403	0.268317
511.532010	0.268437
511.896561	0.262428
512.261053	0.259696
512.625488	0.259864
512.989866	0.258787
513.354186	0.257335
513.718449	0.257810
514.082655	0.253166
514.446803	0.254000
514.810894	0.250190
515.174927	0.251883
515.538904	0.250547
515.902822	0.246446
516.266684	0.247859
516.630488	0.248111
516.994235	0.246212
517.357925	0.243799
517.721558	0.241643
518.085133	0.240560
518.448651	0.239996
518.812112	0.241428
519.175516	0.240599
519.538863	0.237890
519.902152	0.238976
520.265385	0.235115
520.628560	0.236633
520.991678	0.236614
521.354739	0.234919
521.717743	0.236072
522.080690	0.236221
522.443580	0.232940
522.806413	0.233747
523.169189	0.232778
523.531908	0.231343
523.894569	0.234701
524.257174	0.234173
524.619722	0.231826
524.982213	0.232893
525.344647	0.231467
525.707025	0.232367
526.069345	0.230156
526.431608	0.231675
526.793815	0.229605
527.155964	0.233564
527.518057	0.232319
527.880093	0.233343
528.242072	0.231504
528.603995	0.233286
528.965860	0.234903
529.327669	0.233570
529.689421	0.234373
530.051117	0.235320
530.412755	0.232777
530.774337	0.235123
531.135862	0.235034
531.497331	0.234522
531.858743	0.237395
532.220098	0.233956
532.581396	0.236371
532.942638	0.236785
533.303824	0.237807
533.664953	0.237396
534.026025	0.239192
534.387040	0.237120
534.747999	0.237293
535.108902	0.235779
535.469748	0.240652
535.830537	0.238680
536.191270	0.239185
536.551947	0.238149
536.912567	0.238379
537.273131	0.240052
537.633638	0.240065
537.994089	0.240534
538.354483	0.241588
538.714821	0.238494
539.075103	0.238476
539.435328	0.238897
539.795497	0.242618
540.155609	0.239345
540.515665	0.237480
540.875665	0.242956
541.235609	0.241630
541.595496	0.241481
541.955328	0.238088
542.315102	0.240955
542.674821	0.241607
543.034483	0.241808
543.394090	0.241386
543.753640	0.243317
544.113134	0.238188
544.472571	0.241862
544.831953	0.238542
545.191278	0.242429
545.550548	0.241981
545.909761	0.238501
546.268918	0.239468
546.628019	0.237834
546.987064	0.240494
547.346053	0.242229
547.704986	0.240225
548.063863	0.240378
548.422684	0.240500
548.781449	0.242578
549.140158	0.240176
549.498811	0.242986
549.857408	0.246138
550.215949	0.241022
550.574434	0.243636
550.932864	0.241800
551.291237	0.240514
551.649555	0.241944
552.007817	0.241480
552.366022	0.242052
552.724173	0.242686
553.082267	0.243204
553.440305	0.239914
553.798288	0.244397
554.156215	0.240850
554.514086	0.241691
554.871902	0.244630
555.229661	0.243679
555.587365	0.244364
555.945014	0.246909
556.302606	0.243946
556.660143	0.246381
557.017625	0.242619
557.375050	0.244894
557.732421	0.242060
558.089735	0.244253
558.446994	0.244335
558.804197	0.243430
559.161345	0.243527
559.518437	0.246818
559.875474	0.244563
560.232455	0.243909
560.589381	0.245202
560.946251	0.245122
561.303065	0.242837
561.659825	0.244542
562.016528	0.245651
562.373177	0.248610
562.729770	0.245827
563.086307	0.247717
563.442789	0.245645
563.799216	0.248348
564.155587	0.247291
564.511904	0.248338
564.868164	0.248742
565.224370	0.248314
565.580520	0.250298
565.936615	0.250008
566.292654	0.252893
566.648638	0.249888
567.004567	0.251088
567.360441	0.251529
567.716260	0.253818
568.072023	0.251008
568.427732	0.252162
568.783385	0.254447
569.138982	0.252487
569.494525	0.252249
569.850013	0.255067
570.205445	0.253313
570.560823	0.255798
570.916145	0.258056
571.271412	0.256466
571.626625	0.257604
571.981782	0.257877
572.336884	0.259066
572.691931	0.258407
573.046923	0.260136
573.401860	0.261003
573.756743	0.262742
574.111570	0.261577
574.466342	0.262240
574.821059	0.261416
575.175722	0.264178
575.530330	0.264125
575.884882	0.263985
576.239380	0.266203
576.593823	0.266662
576.948211	0.266370
577.302544	0.269504
577.656823	0.269135
578.011047	0.269082
578.365216	0.269767
578.719330	0.271789
579.073389	0.271824
579.427394	0.273106
579.781344	0.273657
580.135239	0.275414
580.489080	0.274964
580.842866	0.277852
581.196597	0.277317
581.550273	0.276351
581.903895	0.277298
582.257463	0.275394
582.610975	0.278995
582.964434	0.278154
583.317837	0.280829
583.671186	0.281080
584.024481	0.280995
584.377721	0.283390
584.730906	0.283988
585.084037	0.283424
585.437113	0.285077
585.790135	0.284714
586.143103	0.287847
586.496016	0.288840
586.848874	0.286341
587.201679	0.286508
587.554428	0.290221
587.907124	0.289027
588.259765	0.289813
588.612352	0.290326
588.964884	0.293972
589.317362	0.293666
589.669786	0.293589
590.022155	0.291784
590.374470	0.291432
590.726731	0.293521
591.078937	0.298588
591.431090	0.294125
591.783188	0.298656
592.135232	0.298976
592.487222	0.298916
592.839157	0.297394
593.191038	0.299729
593.542866	0.301530
593.894639	0.304969
594.246358	0.302892
594.598022	0.302445
594.949633	0.305997
595.301190	0.306812
595.652692	0.306132
596.004141	0.302227
596.355535	0.310187
596.706876	0.310887
597.058162	0.313044
597.409395	0.310483
597.760573	0.308138
598.111698	0.311119
598.462768	0.311843
598.813785	0.313024
599.164748	0.314403
599.515657	0.314631
599.866511	0.318190
600.217312	0.313295
600.568060	0.318731
600.918753	0.314981
601.269392	0.315979
601.619978	0.319364
601.970510	0.316826
602.320988	0.317011
602.671412	0.314755
603.021783	0.317404
603.372100	0.318416
603.722363	0.317996
604.072572	0.319221
604.422728	0.319161
604.772830	0.320950
605.122878	0.320679
605.472872	0.320888
605.822813	0.319360
606.172701	0.321891
606.522534	0.319462
606.872314	0.319295
607.222041	0.320518
607.571714	0.318982
607.921333	0.319729
608.270899	0.319634
608.620411	0.316428
608.969870	0.320467
609.319276	0.320593
609.668627	0.320345
610.017926	0.319028
610.367171	0.317105
610.716362	0.318426
611.065500	0.318381
611.414585	0.317279
611.763616	0.317628
612.112594	0.317914
612.461518	0.317457
612.810389	0.315176
613.159207	0.317395
613.507971	0.319551
613.856682	0.314962
614.205340	0.317227
614.553945	0.313456
614.902496	0.317467
615.250994	0.315268
615.599439	0.316094
615.947830	0.315753
616.296169	0.316588
616.644454	0.316448
616.992686	0.316418
617.340864	0.314218
617.688990	0.317966
618.037063	0.314219
618.385082	0.316291
618.733048	0.312692
619.080961	0.315300
619.428821	0.314875
619.776628	0.314367
620.124382	0.316583
620.472083	0.316579
620.819731	0.315873
621.167326	0.319871
621.514868	0.319575
621.862357	0.323698
622.209793	0.323237
622.557176	0.325672
622.904506	0.326503
623.251783	0.329036
623.599007	0.331218
623.946179	0.330676
624.293297	0.332687
624.640363	0.336503
624.987376	0.337268
625.334336	0.339857
625.681243	0.342096
626.028097	0.342456
626.374899	0.343431
626.721647	0.343613
627.068343	0.347072
627.414987	0.348080
627.761577	0.350559
628.108115	0.348766
628.454600	0.353286
628.801032	0.350689
629.147412	0.353238
629.493739	0.353388
629.840014	0.356613
630.186236	0.353636
630.532405	0.359634
630.878521	0.356751
631.224585	0.359107
631.570597	0.362941
631.916556	0.361073
632.262462	0.361610
632.608316	0.363385
632.954117	0.364350
633.299866	0.364941
633.645562	0.365458
633.991206	0.369716
634.336797	0.372431
634.682336	0.374873
635.027823	0.376356
635.373257	0.377157
635.718639	0.380798
636.063968	0.379755
636.409245	0.385491
636.754470	0.386666
637.099642	0.388926
637.444762	0.392022
637.789829	0.391302
638.134845	0.394343
638.479808	0.395283
638.824719	0.394885
639.169577	0.399213
639.514383	0.398163
639.859137	0.402243
640.203839	0.402279
640.548489	0.402465
640.893086	0.404066
641.237632	0.405740
641.582125	0.403965
641.926566	0.405442
642.270955	0.405673
642.615292	0.405979
642.959576	0.405573
643.303809	0.405517
643.647990	0.405340
643.992118	0.405786
644.336195	0.409383
644.680219	0.407540
645.024192	0.408533
645.368112	0.402265
645.711981	0.401236
646.055797	0.396292
646.399562	0.399089
646.743274	0.390804
647.086935	0.388166
647.430544	0.388372
647.774101	0.387574
648.117606	0.387194
648.461059	0.387780
648.804460	0.389524
649.147810	0.395128
649.491108	0.397158
649.834354	0.398677
650.177548	0.403832
650.520690	0.408566
650.863781	0.410339
651.206820	0.409571
651.549807	0.414386
651.892742	0.418145
652.235626	0.417547
652.578458	0.418583
652.921238	0.424656
653.263967	0.422311
653.606644	0.426482
653.949269	0.426269
654.291843	0.430325
654.634365	0.426588
654.976836	0.429632
655.319255	0.429975
655.661622	0.431861
656.003938	0.431929
656.346203	0.435067
656.688416	0.432271
657.030577	0.436352
657.372687	0.438041
657.714746	0.439018
658.056753	0.435951
658.398708	0.438971
658.740612	0.440835
659.082465	0.437295
659.424266	0.437278
659.766016	0.437353
660.107715	0.439004
660.449362	0.437998
660.790958	0.439103
661.132503	0.439455
661.473996	0.437110
661.815438	0.438558
662.156829	0.437934
662.498168	0.439121
662.839456	0.441127
663.180693	0.438174
663.521879	0.438399
663.863013	0.438768
664.204097	0.437357
664.545129	0.434819
664.886110	0.434917
665.227040	0.432529
665.567918	0.434543
665.908746	0.432877
666.249522	0.432697
666.590248	0.434009
666.930922	0.431952
667.271545	0.431134
667.612118	0.430799
667.952639	0.432461
668.293109	0.430509
668.633528	0.433710
668.973896	0.433877
669.314213	0.433583
669.654480	0.436086
669.994695	0.436071
670.334859	0.437165
670.674973	0.437362
671.015035	0.437087
671.355047	0.437328
671.695008	0.438141
672.034918	0.440188
672.374777	0.439287
672.714585	0.440475
673.054342	0.440999
673.394049	0.440894
673.733705	0.438053
674.073310	0.439845
674.412864	0.442395
674.752368	0.443138
675.091820	0.442859
675.431223	0.447429
675.770574	0.447731
676.109875	0.450691
676.449125	0.450395
676.788324	0.452607
677.127473	0.458235
677.466571	0.458109
677.805619	0.459684
678.144616	0.460568
678.483562	0.462397
678.822458	0.464646
679.161303	0.465890
679.500098	0.466133
679.838842	0.467757
680.177535	0.467448
680.516179	0.465742
680.854771	0.464806
681.193314	0.458652
681.531805	0.450192
681.870247	0.438422
682.208638	0.431079
682.546978	0.429588
682.885268	0.431942
683.223508	0.437648
683.561697	0.441716
683.899836	0.444331
684.237925	0.447681
684.575963	0.450036
684.913951	0.452920
685.251889	0.448826
685.589776	0.450933
685.927614	0.453624
686.265401	0.448125
686.603137	0.448796
686.940824	0.443301
687.278460	0.441634
687.616046	0.440513
687.953582	0.435560
688.291068	0.437135
688.628504	0.432860
688.965889	0.434985
689.303224	0.439018
689.640510	0.443354
689.977745	0.448242
690.314930	0.457113
690.652065	0.461002
690.989150	0.469008
691.326185	0.475095
691.663170	0.479179
692.000105	0.487046
692.336990	0.493488
692.673825	0.495707
693.010610	0.503010
693.347345	0.508809
693.684030	0.510012
694.020665	0.514685
694.357251	0.523352
694.693786	0.522991
695.030272	0.527485
695.366707	0.530656
695.703093	0.534447
696.039429	0.531448
696.375716	0.533659
696.711952	0.536251
697.048139	0.538709
697.384276	0.541028
697.720363	0.538825
698.056400	0.537600
698.392388	0.543146
698.728326	0.546672
699.064214	0.548993
699.400053	0.549329
699.735842	0.553956
700.071581	0.556447
700.407270	0.559344
700.742910	0.561477
701.078501	0.568397
701.414042	0.568194
701.749533	0.571296
702.084974	0.579978
702.420366	0.572030
702.755709	0.580594
703.091002	0.587528
703.426246	0.581238
703.761440	0.586872
704.096584	0.591266
704.431679	0.588659
704.766725	0.591229
705.101721	0.592330
705.436668	0.588955
705.771565	0.595389
706.106413	0.592368
706.441212	0.587452
706.775961	0.586988
707.110661	0.589363
707.445311	0.585944
707.779913	0.582653
708.114465	0.581319
708.448967	0.579026
708.783421	0.569762
709.117825	0.564429
709.452180	0.564869
709.786485	0.558864
710.120742	0.548921
710.454949	0.550783
710.789107	0.543056
711.123216	0.534465
711.457275	0.535222
711.791286	0.526506
712.125247	0.525643
712.459159	0.536659
712.793023	0.528972
713.126837	0.532360
713.460602	0.533551
713.794318	0.542870
714.127985	0.541478
714.461602	0.551696
714.795171	0.554523
715.128691	0.563144
715.462162	0.570520
715.795584	0.576211
716.128957	0.578830
716.462281	0.585178
716.795556	0.587708
717.128782	0.593301
717.461960	0.603175
717.795088	0.601239
718.128167	0.608153
718.461198	0.615797
718.794180	0.616723
719.127113	0.619752
719.459997	0.623418
719.792833	0.629690
720.125619	0.630722
720.458357	0.636113
720.791046	0.636286
721.123686	0.639044
721.456278	0.645916
721.788821	0.643591
722.121315	0.648144
722.453761	0.652460
722.786158	0.649310
723.118506	0.646856
723.450805	0.654187
723.783056	0.650541
724.115259	0.648123
724.447412	0.647062
724.779518	0.648678
725.111574	0.647059
725.443582	0.642874
725.775542	0.644770
726.107453	0.636637
726.439315	0.637262
726.771129	0.635346
727.102895	0.629346
727.434612	0.622138
727.766281	0.619921
728.097901	0.618711
728.429473	0.619703
728.760996	0.617722
729.092471	0.617514
729.423897	0.620994
729.755276	0.620324
730.086606	0.620512
730.417887	0.615558
730.749120	0.605660
731.080305	0.596692
731.411442	0.592670
731.742530	0.597880
732.073570	0.597383
732.404562	0.588992
732.735506	0.591299
733.066401	0.595647
733.397249	0.604382
733.728048	0.615451
734.058798	0.628217
734.389501	0.638717
734.720156	0.648685
735.050762	0.656871
735.381320	0.658216
735.711831	0.667253
736.042293	0.671862
736.372707	0.667010
736.703073	0.672650
737.033391	0.674126
737.363661	0.671036
737.693883	0.665976
738.024056	0.665688
738.354182	0.665937
738.684260	0.654957
739.014290	0.650631
739.344272	0.652078
739.674207	0.645555
740.004093	0.645203
740.333931	0.645275
740.663722	0.645631
740.993464	0.645832
741.323159	0.649632
741.652806	0.654939
741.982405	0.659792
742.311956	0.663994
742.641460	0.665657
742.970915	0.670013
743.300323	0.676552
743.629683	0.683956
743.958996	0.685558
744.288260	0.690405
744.617477	0.695699
744.946647	0.697794
745.275768	0.702864
745.604842	0.702425
745.933869	0.712499
746.262847	0.712495
746.591778	0.705887
746.920662	0.713739
747.249498	0.718848
747.578286	0.710802
747.907027	0.706185
748.235720	0.707533
748.564365	0.701981
748.892963	0.701319
749.221514	0.705130
749.550017	0.710299
749.878473	0.709100
750.206881	0.716421
750.535242	0.717616
750.863555	0.717542
751.191821	0.718028
751.520039	0.721670
751.848210	0.726219
752.176334	0.718554
752.504411	0.717369
752.832440	0.726071
753.160421	0.729853
753.488356	0.728362
753.816243	0.725244
754.144082	0.733543
754.471875	0.737463
754.799620	0.733120
755.127318	0.734006
755.454969	0.733641
755.782572	0.733799
756.110129	0.739194
756.437638	0.740478
756.765100	0.737860
757.092515	0.736137
757.419882	0.734779
757.747203	0.739388
758.074477	0.738643
758.401703	0.736122
758.728882	0.730996
759.056014	0.730470
759.383099	0.729624
759.710138	0.730733
760.037129	0.727045
760.364073	0.721038
760.690970	0.723393
761.017820	0.730028
761.344623	0.725246
761.671379	0.716227
761.998088	0.703302
762.324751	0.682112
762.651366	0.640319
762.977935	0.574000
763.304456	0.522189
763.630931	0.512734
763.957359	0.551669
764.283740	0.595558
764.610074	0.622915
764.936362	0.653664
765.262602	0.679762
765.588796	0.701358
765.914943	0.719622
766.241044	0.736313
766.567097	0.742603
766.893104	0.753176
767.219064	0.759578
767.544978	0.766398
767.870845	0.779135
768.196665	0.782782
768.522438	0.780347
768.848165	0.782467
769.173846	0.791452
769.499479	0.795764
769.825066	0.799022
770.150607	0.804620
770.476101	0.798885
770.801548	0.800354
771.126949	0.811777
771.452303	0.815293
771.777611	0.815467
772.102872	0.813534
772.428087	0.818560
772.753256	0.822848
773.078378	0.824418
773.403453	0.833250
773.728482	0.836266
774.053465	0.831315
774.378401	0.834812
774.703291	0.843269
775.028135	0.842791
775.352932	0.844149
775.677683	0.846045
776.002388	0.847670
776.327046	0.847522
776.651658	0.849388
776.976224	0.853887
777.300743	0.853538
777.625216	0.856442
777.949643	0.858226
778.274024	0.858379
778.598359	0.859980
778.922647	0.857649
779.246889	0.859456
779.571086	0.861835
779.895236	0.865189
780.219339	0.861489
780.543397	0.858714
780.867409	0.857415
781.191374	0.859974
781.515294	0.861291
781.839167	0.859380
782.162995	0.863867
782.486776	0.860841
782.810511	0.861530
783.134201	0.865022
783.457844	0.862439
783.781441	0.865587
784.104993	0.871888
784.428498	0.871148
784.751958	0.867500
785.075372	0.869415
785.398739	0.873251
785.722061	0.870253
786.045337	0.865249
786.368568	0.870174
786.691752	0.872910
787.014891	0.858820
787.337983	0.850420
787.661030	0.841986
787.984031	0.825172
788.306987	0.812771
788.629897	0.814376
788.952760	0.818525
789.275579	0.822945
789.598351	0.837372
789.921078	0.850837
790.243759	0.852276
790.566395	0.857713
790.888984	0.864588
791.211529	0.869113
791.534027	0.872340
791.856480	0.875525
792.178888	0.879694
792.501249	0.882435
792.823566	0.883124
793.145836	0.882696
793.468062	0.885964
793.790241	0.885435
794.112375	0.884029
794.434464	0.879716
794.756507	0.878625
795.078505	0.879168
795.400457	0.873532
795.722364	0.861496
796.044226	0.854828
796.366042	0.853456
796.687812	0.856502
797.009538	0.853108
797.331218	0.855737
797.652852	0.860915
797.974442	0.865585
798.295986	0.865970
798.617484	0.867328
798.938938	0.871661
799.260346	0.877821
799.581709	0.878683
799.903026	0.881229
800.224299	0.881917
800.545526	0.885403
800.866708	0.889330
801.187845	0.893675
801.508936	0.893103
801.829983	0.891940
802.150984	0.893542
802.471940	0.898657
802.792851	0.898509
803.113717	0.899206
803.434538	0.896250
803.755314	0.898741
804.076045	0.901133
804.396731	0.900952
804.717372	0.900387
805.037967	0.903803
805.358518	0.900982
805.679024	0.898162
805.999485	0.896789
806.319901	0.897847
806.640272	0.898791
806.960598	0.898088
807.280879	0.894433
807.601115	0.894424
807.921306	0.896988
808.241453	0.897030
808.561554	0.895099
808.881611	0.895303
809.201623	0.897444
809.521590	0.896630
809.841513	0.898326
810.161390	0.897710
810.481223	0.897771
810.801011	0.901957
811.120755	0.903624
811.440453	0.903146
811.760107	0.901790
812.079716	0.901913
812.399281	0.904523
812.718801	0.908461
813.038276	0.907485
813.357707	0.907819
813.677093	0.904843
813.996434	0.907738
814.315731	0.909196
814.634983	0.911302
814.954191	0.908195
815.273354	0.905897
815.592473	0.901889
815.911547	0.902009
816.230577	0.900257
816.549562	0.897740
816.868502	0.898681
817.187399	0.893742
817.506250	0.888584
817.825058	0.891869
818.143821	0.887339
818.462539	0.882706
818.781213	0.874257
819.099843	0.863415
819.418429	0.848374
819.736970	0.830856
820.055466	0.811609
820.373919	0.786807
820.692327	0.754670
821.010691	0.719743
821.329011	0.643291
821.647286	0.530091
821.965517	0.416990
822.283704	0.374896
822.601847	0.376355
822.919945	0.411728
823.237999	0.444850
823.556010	0.491154
823.873976	0.545909
824.191897	0.595891
824.509775	0.638270
824.827609	0.683586
825.145398	0.705633
825.463144	0.707849
825.780845	0.691660
826.098502	0.672897
826.416116	0.627062
826.733685	0.584249
827.051210	0.575560
827.368692	0.590906
827.686129	0.626460
828.003522	0.679516
828.320872	0.726794
828.638177	0.769718
828.955439	0.802987
829.272656	0.823165
829.589830	0.841112
829.906960	0.856416
830.224046	0.868309
830.541088	0.879086
830.858086	0.883047
831.175041	0.889446
831.491952	0.888571
831.808819	0.884223
832.125642	0.879125
832.442421	0.863834
832.759157	0.841682
833.075849	0.796226
833.392497	0.733397
833.709101	0.693408
834.025662	0.702418
834.342179	0.733908
834.658653	0.773102
834.975083	0.808305
835.291469	0.835121
835.607811	0.857026
835.924110	0.871355
836.240366	0.889105
836.556578	0.902012
836.872746	0.910198
837.188871	0.914942
837.504952	0.920178
837.820990	0.924517
838.136984	0.928221
838.452935	0.930908
838.768842	0.933128
839.084706	0.925345
839.400526	0.900423
839.716303	0.860791
840.032037	0.838795
840.347727	0.842452
840.663373	0.860531
840.978977	0.881629
841.294537	0.902310
841.610054	0.918805
841.925527	0.927216
842.240957	0.934072
842.556344	0.941306
842.871687	0.947537
843.186987	0.951293
843.502244	0.950858
843.817458	0.952374
844.132629	0.956289
844.447756	0.960566
844.762840	0.961616
845.077881	0.960851
845.392879	0.959522
845.707833	0.963067
846.022745	0.965979
846.337613	0.965102
846.652438	0.968089
846.967221	0.964814
847.281960	0.965395
847.596656	0.967916
847.911309	0.965927
848.225919	0.968006
848.540485	0.968629
848.855009	0.970105
849.169490	0.968550
849.483928	0.970450
849.798323	0.970105
850.112675	0.970188
850.426984	0.969754
850.741251	0.970864
851.055474	0.970022
851.369654	0.968806
851.683792	0.969680
851.997887	0.969691
852.311938	0.971400
852.625947	0.969075
852.939914	0.968105
853.253837	0.969584
853.567718	0.971275
853.881555	0.970864
854.195350	0.967498
854.509103	0.970982
854.822812	0.969938
855.136479	0.970605
855.450103	0.969657
855.763685	0.969328
856.077224	0.970029
856.390720	0.970808
856.704173	0.971023
857.017584	0.969013
857.330953	0.966862
857.644278	0.968330
857.957561	0.969019
858.270802	0.968979
858.584000	0.968899
858.897155	0.966819
859.210268	0.967854
859.523339	0.969313
859.836367	0.970331
860.149352	0.971103
860.462295	0.970665
860.775195	0.971112
861.088054	0.969293
861.400869	0.970544
861.713642	0.970544
862.026373	0.970521
862.339062	0.971769
862.651708	0.968230
862.964312	0.967814
863.276873	0.970350
863.589392	0.969244
863.901869	0.967033
864.214303	0.965824
864.526696	0.963675
864.839045	0.964277
865.151353	0.962101
865.463619	0.963325
865.775842	0.962943
866.088023	0.962661
866.400162	0.963096
866.712258	0.962876
867.024313	0.963795
867.336325	0.963944
867.648296	0.964305
867.960224	0.964291
868.272110	0.962251
868.583954	0.965279
868.895755	0.964574
869.207515	0.963305
869.519233	0.959307
869.830909	0.962401
870.142542	0.963538
870.454134	0.960811
870.765684	0.961530
871.077191	0.958235
871.388657	0.959404
871.700081	0.959124
872.011463	0.959845
872.322803	0.958048
872.634101	0.957524
872.945357	0.954586
873.256571	0.954041
873.567744	0.952914
873.878874	0.953917
874.189963	0.952588
874.501010	0.951944
874.812015	0.950899
875.122979	0.951633
875.433900	0.954158
875.744780	0.955111
876.055618	0.952848
876.366415	0.950903
876.677169	0.951475
876.987882	0.952408
877.298554	0.951756
877.609183	0.948182
877.919771	0.945978
878.230317	0.943779
878.540822	0.942601
878.851285	0.937374
879.161707	0.929051
879.472087	0.917070
879.782425	0.901602
880.092722	0.868692
880.402977	0.816248
880.713191	0.757841
881.023363	0.700458
881.333494	0.666891
881.643583	0.638642
881.953631	0.638432
882.263637	0.667784
882.573602	0.706085
882.883526	0.731422
883.193408	0.753523
883.503248	0.776210
883.813048	0.803319
884.122806	0.832052
884.432522	0.854401
884.742197	0.873753
885.051831	0.884379
885.361424	0.893947
885.670975	0.905625
885.980485	0.915301
886.289954	0.921186
886.599382	0.927028
886.908768	0.930171
887.218113	0.935926
887.527417	0.940091
887.836680	0.942822
888.145901	0.945305
888.455082	0.946888
888.764221	0.952522
889.073319	0.954083
889.382376	0.953603
889.691392	0.954987
890.000366	0.954657
890.309300	0.954570
890.618193	0.953769
890.927044	0.953107
891.235855	0.952303
891.544625	0.952391
891.853353	0.952752
892.162041	0.950685
892.470687	0.944290
892.779293	0.939208
893.087858	0.934749
893.396381	0.928504
893.704864	0.915416
894.013306	0.892351
894.321707	0.866501
894.630068	0.853427
894.938387	0.847476
895.246665	0.848361
895.554903	0.860561
895.863100	0.873355
896.171256	0.889372
896.479371	0.909337
896.787446	0.921387
897.095480	0.927059
897.403473	0.930851
897.711425	0.934615
898.019336	0.940901
898.327207	0.944274
898.635038	0.945949
898.942827	0.947564
899.250576	0.950155
899.558284	0.953695
899.865952	0.955634
900.173579	0.957003
900.481165	0.957544
900.788711	0.960236
901.096216	0.961773
901.403681	0.961725
901.711105	0.964802
902.018489	0.964664
902.325832	0.963203
902.633135	0.963156
902.940397	0.956904
903.247619	0.944906
903.554800	0.920841
903.861941	0.882305
904.169041	0.847823
904.476101	0.831319
904.783121	0.831711
905.090100	0.847792
905.397039	0.868884
905.703938	0.889345
906.010796	0.908046
906.317614	0.924679
906.624391	0.937004
906.931129	0.945762
907.237826	0.953379
907.544483	0.960136
907.851099	0.965253
908.157675	0.968967
908.464211	0.972166
908.770707	0.973756
909.077163	0.975025
909.383578	0.974652
909.689954	0.975626
909.996289	0.976052
910.302584	0.978378
910.608839	0.980451
910.915054	0.978909
911.221229	0.979062
911.527363	0.977532
911.833458	0.977777
912.139513	0.978155
912.445527	0.975727
912.751502	0.975245
913.057436	0.972954
913.363331	0.971747
913.669186	0.967341
913.975000	0.962164
914.280775	0.956635
914.586510	0.950470
914.892205	0.937959
915.197859	0.916144
915.503475	0.890069
915.809050	0.872231
916.114585	0.867171
916.420081	0.864621
916.725536	0.861092
917.030952	0.868527
917.336328	0.881098
917.641665	0.896089
917.946961	0.910194
918.252218	0.922971
918.557435	0.930497
918.862612	0.939850
919.167750	0.943814
919.472848	0.949132
919.777906	0.954533
920.082925	0.959963
920.387904	0.964118
920.692843	0.963779
920.997743	0.965390
921.302603	0.968312
921.607423	0.970417
921.912204	0.972035
922.216946	0.972694
922.521647	0.973499
922.826310	0.975124
923.130932	0.977053
923.435516	0.979272
923.740059	0.980258
924.044564	0.978696
924.349028	0.980191
924.653454	0.983695
924.957840	0.985259
925.262186	0.984673
925.566493	0.984268
925.870761	0.985148
926.174989	0.987218
926.479178	0.987563
926.783328	0.988792
927.087438	0.988811
927.391509	0.988443
927.695541	0.990109
927.999533	0.989842
928.303486	0.990844
928.607400	0.990806
928.911275	0.989550
929.215110	0.990036
929.518906	0.990145
929.822663	0.990585
930.126381	0.991971
930.430060	0.989650
930.733699	0.990191
931.037299	0.989230
931.340861	0.992017
931.644383	0.990934
931.947866	0.989876
932.251309	0.990640
932.554714	0.991252
932.858080	0.990416
933.161407	0.990406
933.464694	0.992093
933.767943	0.989566
934.071153	0.991048
934.374323	0.992158
934.677455	0.991236
934.980548	0.992510
935.283602	0.990508
935.586617	0.991627
935.889593	0.990694
936.192530	0.990708
936.495428	0.991069
936.798287	0.991051
937.101108	0.990888
937.403890	0.989514
937.706632	0.989513
938.009336	0.987036
938.312002	0.986339
938.614628	0.985003
938.917216	0.983622
939.219765	0.981445
939.522275	0.982224
939.824747	0.983409
940.127179	0.985132
940.429573	0.984939
940.731929	0.984198
941.034246	0.984168
941.336524	0.987249
941.638763	0.987018
941.940964	0.987321
942.243126	0.987292
942.545250	0.987282
942.847335	0.989094
943.149381	0.988701
943.451389	0.987760
943.753359	0.988347
944.055290	0.990504
944.357182	0.990508
944.659036	0.988619
944.960851	0.989582
945.262628	0.990711
945.564367	0.990892
945.866067	0.989534
946.167729	0.989622
946.469352	0.990607
946.770937	0.988949
947.072484	0.991437
947.373992	0.990645
947.675462	0.990438
947.976893	0.990226
948.278286	0.989729
948.579641	0.991705
948.880958	0.990989
949.182236	0.992822
949.483476	0.991406
949.784678	0.990273
950.085841	0.991402
950.386967	0.990538
950.688054	0.991329
950.989103	0.992290
951.290114	0.989891
951.591087	0.990420
951.892021	0.990516
952.192917	0.989201
952.493776	0.988491
952.794596	0.987409
953.095378	0.987596
953.396122	0.989126
953.696828	0.987058
953.997496	0.989673
954.298126	0.990082
954.598718	0.990986
954.899272	0.990387
955.199788	0.990948
955.500266	0.991207
955.800706	0.992083
956.101108	0.993888
956.401472	0.992937
956.701798	0.994018
957.002087	0.993966
957.302337	0.993822
957.602550	0.996084
957.902724	0.994732
958.202861	0.995403
958.502960	0.994248
958.803022	0.994548
959.103045	0.995327
959.403031	0.995696
959.702979	0.994463
960.002889	0.996819
960.302762	0.994049
960.602596	0.995659
960.902393	0.995065
961.202153	0.996178
961.501875	0.997519
961.801559	0.996669
962.101205	0.996191
962.400814	0.997325
962.700385	0.996693
962.999918	0.996209
963.299414	0.996171
963.598873	0.995643
963.898293	0.996581
964.197677	0.996214
964.497022	0.995672
964.796331	0.997820
965.095601	0.996313
965.394835	0.996523
965.694030	0.997011
965.993189	0.996405
966.292309	0.995452
966.591393	0.997520
966.890439	0.998150
967.189447	0.995861
967.488419	0.997051
967.787353	0.996238
968.086249	0.996884
968.385108	0.996660
968.683930	0.996539
968.982714	0.997860
969.281462	0.998248
969.580172	0.997134
969.878844	0.998105
970.177480	0.996372
970.476078	0.998120
970.774639	0.998085
971.073162	0.997066
971.371649	0.995654
971.670098	0.995799
971.968510	0.996994
972.266885	0.995129
972.565223	0.995719
972.863524	0.996009
973.161788	0.995791
973.460014	0.997045
973.758204	0.995538
974.056356	0.997127
974.354471	0.994701
974.652550	0.995690
974.950591	0.997597
975.248595	0.996325
975.546563	0.997116
975.844493	0.998732
976.142386	0.997326
976.440243	0.996391
976.738062	0.997087
977.035845	0.997647
977.333590	0.996796
977.631299	0.996925
977.928971	0.997283
978.226606	0.996901
978.524204	0.995520
978.821765	0.998257
979.119290	0.996332
979.416777	0.996512
979.714228	0.996285
980.011642	0.995765
980.309020	0.996875
980.606360	0.996046
980.903664	0.998367
981.200931	0.996555
981.498162	0.995414
981.795356	0.995729
982.092513	0.993897
982.389633	0.994842
982.686717	0.990706
982.983764	0.991949
983.280775	0.990446
983.577749	0.991623
983.874686	0.991665
984.171587	0.992256
984.468451	0.994598
984.765279	0.994631
985.062070	0.994416
985.358824	0.995566
985.655543	0.995519
985.952224	0.996898
986.248869	0.996254
986.545478	0.996774
986.842050	0.999336
987.138586	0.996424
987.435086	0.997673
987.731549	0.997613
988.027975	0.997512
988.324366	0.996826
988.620719	0.996651
988.917037	0.996355
989.213318	0.997893
989.509563	0.998348
989.805772	0.997476
990.101944	0.998436
990.398080	0.997776
990.694180	0.997809
990.990244	0.997937
991.286271	0.997831
991.582262	0.997810
991.878217	0.997635
992.174136	0.998934
992.470019	0.998987
992.765865	0.997428
993.061676	0.997523
993.357450	0.998366
993.653188	0.996382
993.948890	0.997101
994.244556	0.998270
994.540186	0.997570
994.835780	0.996218
995.131337	0.997628
995.426859	0.996654
995.722345	0.997521
996.017795	0.996304
996.313208	0.994577
996.608586	0.996247
996.903928	0.997394
997.199234	0.995318
997.494504	0.996869
997.789738	0.996538
998.084936	0.994897
998.380099	0.998528
998.675225	0.996493
998.970316	0.998283
999.265371	0.998541
999.560390	0.997812
999.855373	0.997642
1000.150320	0.998953
1000.445232	0.998350
1000.740108	0.997712
1001.034948	0.997586
1001.329752	0.998190
1001.624521	0.998763
1001.919254	0.997352
1002.213951	0.997811
1002.508613	0.996964
1002.803239	0.997550
1003.097829	0.998522
1003.392384	0.998831
1003.686903	0.997758
1003.981386	0.997726
1004.275834	0.999364
1004.570246	0.997577
1004.864623	0.999084
1005.158964	0.998938
1005.453270	0.999701
1005.747540	0.998056
1006.041775	0.998411
1006.335974	0.998780
1006.630138	1.000293
1006.924266	0.999097
1007.218359	1.000235
1007.512416	0.999999
1007.806438	0.998980
1008.100425	0.998590
1008.394376	0.998172
1008.688292	0.998390
1008.982172	1.001052
1009.276017	0.998712
1009.569827	0.998539
1009.863602	0.998838
1010.157341	0.999168
1010.451045	0.997935
1010.744714	0.999857
1011.038347	0.997967
1011.331945	0.998905
1011.625508	0.997228
1011.919036	0.999269
1012.212528	0.999005
1012.505986	0.997942
1012.799408	0.998767
1013.092795	0.999221
1013.386147	0.999423
1013.679464	0.997970
1013.972745	0.998072
1014.265992	0.997058
1014.559204	0.999602
1014.852380	0.999355
1015.145521	0.997663
1015.438628	0.998504
1015.731699	0.999470
1016.024736	0.997539
1016.317737	0.997886
1016.610703	0.998611
1016.903635	0.999390
1017.196531	0.999048
1017.489393	0.998952
1017.782219	0.997610
1018.075011	0.998875
1018.367768	0.998430
1018.660490	0.999254
1018.953177	0.999254
1019.245829	0.999254
