Dividing Wavelength (nm)	Counts (n)	Blue Motor Position (mm): 0.000000	Red Motor Position (mm): 24.900000	
326.493990	1.001028
326.888308	1.001028
327.282561	1.001028
327.676750	0.999755
328.070874	0.999607
328.464933	1.000584
328.858929	0.997971
329.252859	0.998792
329.646726	0.998506
330.040528	0.999916
330.434265	0.998935
330.827938	0.999879
331.221547	1.000112
331.615091	0.999901
332.008571	0.999647
332.401986	0.999789
332.795338	1.000387
333.188625	0.998338
333.581847	1.000605
333.975006	0.999323
334.368100	0.998104
334.761129	1.000134
335.154095	1.001080
335.546996	0.998430
335.939833	0.993750
336.332606	0.995022
336.725315	0.995110
337.117960	0.995853
337.510540	0.994084
337.903056	0.996599
338.295508	0.993988
338.687896	0.994463
339.080220	0.994906
339.472480	0.994855
339.864676	0.993933
340.256807	0.994796
340.648875	0.996223
341.040879	0.994651
341.432818	0.994978
341.824694	0.994599
342.216506	0.996084
342.608253	0.995418
342.999937	0.994351
343.391557	0.994592
343.783113	0.993595
344.174605	0.995797
344.566033	0.994623
344.957397	0.994281
345.348697	0.994290
345.739934	0.994366
346.131106	0.994925
346.522215	0.992776
346.913260	0.993922
347.304241	0.994748
347.695159	0.994637
348.086012	0.993060
348.476802	0.994751
348.867528	0.995012
349.258191	0.993372
349.648789	0.994324
350.039324	0.994584
350.429796	0.996224
350.820203	0.994756
351.210548	0.994582
351.600828	0.993600
351.991045	0.994319
352.381198	0.993472
352.771288	0.994429
353.161314	0.993638
353.551276	0.995277
353.941175	0.994393
354.331010	0.994404
354.720782	0.994987
355.110490	0.994738
355.500135	0.994003
355.889717	0.994980
356.279235	0.994926
356.668689	0.995224
357.058080	0.994607
357.447408	0.994041
357.836672	0.994904
358.225873	0.995275
358.615010	0.994910
359.004084	0.995610
359.393095	0.995100
359.782043	0.994889
360.170927	0.996468
360.559748	0.995828
360.948505	0.993807
361.337199	0.994032
361.725830	0.995509
362.114398	0.995060
362.502903	0.995062
362.891344	0.995701
363.279722	0.994085
363.668037	0.995300
364.056289	0.993903
364.444478	0.995480
364.832603	0.994782
365.220665	0.994552
365.608665	0.994290
365.996601	0.993542
366.384474	0.994767
366.772284	0.994969
367.160031	0.993868
367.547715	0.994330
367.935336	0.994072
368.322893	0.993850
368.710388	0.993029
369.097820	0.994969
369.485189	0.993908
369.872495	0.994993
370.259738	0.993381
370.646918	0.995901
371.034035	0.995754
371.421090	0.994638
371.808081	0.994176
372.195010	0.995123
372.581875	0.993352
372.968678	0.994569
373.355418	0.995913
373.742096	0.994003
374.128710	0.994925
374.515262	0.993789
374.901751	0.994825
375.288177	0.993982
375.674540	0.995622
376.060841	0.994146
376.447079	0.994853
376.833254	0.994360
377.219367	0.995125
377.605417	0.994642
377.991404	0.994544
378.377329	0.995314
378.763191	0.994422
379.148991	0.995668
379.534727	0.994890
379.920402	0.995538
380.306013	0.995115
380.691563	0.995824
381.077049	0.994789
381.462474	0.995773
381.847835	0.995638
382.233134	0.994985
382.618371	0.995107
383.003545	0.995139
383.388657	0.994510
383.773706	0.995301
384.158693	0.995704
384.543618	0.995588
384.928480	0.996130
385.313280	0.996547
385.698017	0.996914
386.082692	0.995450
386.467305	0.995711
386.851856	0.995364
387.236344	0.995621
387.620770	0.995010
388.005133	0.996029
388.389435	0.996989
388.773674	0.995867
389.157851	0.996516
389.541965	0.995990
389.926018	0.995637
390.310008	0.997604
390.693936	0.995844
391.077802	0.995131
391.461606	0.995871
391.845348	0.995601
392.229027	0.996494
392.612645	0.996499
392.996200	0.996841
393.379694	0.995598
393.763125	0.996437
394.146494	0.996769
394.529801	0.995331
394.913047	0.995358
395.296230	0.996006
395.679351	0.995473
396.062410	0.995075
396.445408	0.996283
396.828343	0.995757
397.211217	0.994951
397.594028	0.996626
397.976778	0.995492
398.359466	0.995567
398.742092	0.994868
399.124656	0.995224
399.507158	0.995434
399.889598	0.996064
400.271977	0.996845
400.654294	0.995580
401.036549	0.996206
401.418742	0.996678
401.800874	0.996080
402.182944	0.996301
402.564952	0.995124
402.946898	0.997213
403.328783	0.996258
403.710606	0.995291
404.092367	0.996152
404.474067	0.996259
404.855705	0.995580
405.237282	0.996287
405.618797	0.995601
406.000250	0.995212
406.381642	0.996222
406.762972	0.995755
407.144240	0.997017
407.525447	0.995689
407.906593	0.995546
408.287677	0.996296
408.668700	0.996108
409.049661	0.995856
409.430560	0.996612
409.811399	0.995708
410.192176	0.995597
410.572891	0.995251
410.953545	0.996350
411.334138	0.995275
411.714669	0.996620
412.095139	0.995680
412.475547	0.996629
412.855894	0.995657
413.236180	0.996402
413.616405	0.996482
413.996568	0.996751
414.376670	0.995207
414.756711	0.995000
415.136691	0.996086
415.516609	0.996434
415.896466	0.995504
416.276262	0.996256
416.655997	0.996791
417.035670	0.994685
417.415283	0.995526
417.794834	0.996001
418.174324	0.996848
418.553753	0.996581
418.933121	0.996812
419.312428	0.995805
419.691674	0.994878
420.070859	0.996152
420.449983	0.995458
420.829045	0.995959
421.208047	0.996142
421.586988	0.996802
421.965867	0.995634
422.344686	0.997074
422.723444	0.997023
423.102141	0.995106
423.480777	0.996097
423.859352	0.995738
424.237866	0.996098
424.616319	0.996737
424.994712	0.996128
425.373044	0.996443
425.751314	0.995975
426.129524	0.995461
426.507673	0.996582
426.885762	0.996871
427.263789	0.996015
427.641756	0.996019
428.019662	0.995906
428.397508	0.994350
428.775292	0.994562
429.153016	0.995238
429.530679	0.995295
429.908282	0.995459
430.285824	0.994154
430.663305	0.994158
431.040726	0.994039
431.418086	0.994953
431.795385	0.994013
432.172624	0.993430
432.549802	0.993091
432.926920	0.992827
433.303977	0.991740
433.680974	0.992098
434.057910	0.991502
434.434786	0.990923
434.811601	0.989033
435.188355	0.987461
435.565050	0.986712
435.941683	0.986434
436.318257	0.985103
436.694770	0.983634
437.071222	0.982139
437.447614	0.981186
437.823946	0.979374
438.200218	0.976958
438.576429	0.975842
438.952580	0.973831
439.328670	0.970691
439.704700	0.969664
440.080670	0.967443
440.456580	0.963580
440.832429	0.960382
441.208218	0.959579
441.583947	0.955818
441.959616	0.952397
442.335224	0.949600
442.710773	0.946216
443.086261	0.941865
443.461689	0.939794
443.837057	0.934939
444.212365	0.930130
444.587612	0.927336
444.962800	0.921171
445.337927	0.917999
445.712995	0.916369
446.088002	0.907383
446.462949	0.903546
446.837837	0.897646
447.212664	0.893552
447.587431	0.884814
447.962139	0.872065
448.336786	0.857471
448.711374	0.855098
449.085901	0.858895
449.460369	0.853628
449.834776	0.846885
450.209124	0.834828
450.583412	0.824758
450.957640	0.817685
451.331808	0.812577
451.705917	0.812299
452.079965	0.806347
452.453954	0.794967
452.827883	0.791022
453.201752	0.781496
453.575562	0.778823
453.949311	0.764743
454.323001	0.760526
454.696632	0.751177
455.070202	0.739941
455.443713	0.729042
455.817164	0.718848
456.190556	0.707946
456.563888	0.698100
456.937160	0.688881
457.310373	0.689594
457.683526	0.679727
458.056619	0.674592
458.429653	0.666829
458.802628	0.660157
459.175542	0.650205
459.548398	0.632112
459.921194	0.620050
460.293930	0.612760
460.666607	0.590828
461.039224	0.576519
461.411782	0.566371
461.784280	0.556611
462.156719	0.550703
462.529099	0.545150
462.901419	0.547038
463.273680	0.541845
463.645882	0.534540
464.018024	0.529947
464.390106	0.517210
464.762130	0.500000
465.134094	0.481955
465.505999	0.456278
465.877845	0.429031
466.249631	0.412139
466.621358	0.408042
466.993026	0.409363
467.364634	0.405800
467.736184	0.405020
468.107674	0.406148
468.479105	0.398276
468.850477	0.399207
469.221790	0.398140
469.593043	0.400846
469.964238	0.398719
470.335373	0.393172
470.706449	0.386954
471.077467	0.383062
471.448425	0.345941
471.819324	0.320557
472.190164	0.315611
472.560945	0.336264
472.931667	0.351120
473.302330	0.351355
473.672934	0.358659
474.043479	0.344406
474.413965	0.342555
474.784393	0.342620
475.154761	0.334733
475.525070	0.329059
475.895321	0.332080
476.265513	0.323879
476.635645	0.316982
477.005719	0.313967
477.375734	0.308885
477.745691	0.300418
478.115588	0.294746
478.485427	0.286748
478.855207	0.272520
479.224928	0.254497
479.594591	0.241451
479.964194	0.242592
480.333739	0.241945
480.703226	0.241917
481.072653	0.239346
481.442022	0.233796
481.811333	0.229339
482.180584	0.231912
482.549777	0.235800
482.918912	0.238574
483.287988	0.237361
483.657005	0.235923
484.025964	0.241877
484.394864	0.238523
484.763706	0.238477
485.132489	0.243143
485.501213	0.242908
485.869879	0.241051
486.238487	0.243933
486.607036	0.241231
486.975527	0.245608
487.343959	0.241042
487.712333	0.240155
488.080648	0.241144
488.448905	0.240030
488.817104	0.241012
489.185244	0.235314
489.553326	0.231926
489.921350	0.221708
490.289315	0.204214
490.657222	0.199359
491.025070	0.200299
491.392861	0.202110
491.760593	0.207691
492.128267	0.213179
492.495883	0.218530
492.863440	0.224573
493.230939	0.230863
493.598380	0.232105
493.965763	0.233985
494.333088	0.236487
494.700354	0.237649
495.067563	0.236479
495.434713	0.239931
495.801805	0.237571
496.168839	0.239139
496.535815	0.240100
496.902733	0.240303
497.269593	0.241683
497.636395	0.239558
498.003139	0.239671
498.369825	0.242613
498.736453	0.239038
499.103023	0.240434
499.469535	0.239672
499.835989	0.240097
500.202385	0.240989
500.568723	0.244158
500.935003	0.239204
501.301226	0.243137
501.667390	0.237532
502.033497	0.235602
502.399546	0.238984
502.765537	0.240462
503.131470	0.239030
503.497345	0.234979
503.863163	0.243723
504.228923	0.236883
504.594625	0.235568
504.960269	0.240868
505.325856	0.235867
505.691385	0.240336
506.056856	0.237160
506.422270	0.236443
506.787625	0.238921
507.152924	0.236035
507.518164	0.236818
507.883347	0.238374
508.248472	0.240284
508.613540	0.235090
508.978550	0.237505
509.343503	0.237893
509.708398	0.235574
510.073236	0.233242
510.438016	0.233344
510.802738	0.234027
511.167403	0.232948
511.532010	0.235196
511.896561	0.230625
512.261053	0.229434
512.625488	0.231323
512.989866	0.231691
513.354186	0.231803
513.718449	0.233898
514.082655	0.230213
514.446803	0.232331
514.810894	0.229962
515.174927	0.232712
515.538904	0.231995
515.902822	0.229028
516.266684	0.231569
516.630488	0.232661
516.994235	0.231343
517.357925	0.230147
517.721558	0.228681
518.085133	0.227679
518.448651	0.228131
518.812112	0.230124
519.175516	0.229987
519.538863	0.227565
519.902152	0.228874
520.265385	0.226161
520.628560	0.227675
520.991678	0.228178
521.354739	0.227134
521.717743	0.228395
522.080690	0.229165
522.443580	0.226143
522.806413	0.227310
523.169189	0.226414
523.531908	0.225158
523.894569	0.228721
524.257174	0.228716
524.619722	0.226553
524.982213	0.227699
525.344647	0.226689
525.707025	0.227249
526.069345	0.225492
526.431608	0.227315
526.793815	0.224976
527.155964	0.229401
527.518057	0.228380
527.880093	0.229211
528.242072	0.227627
528.603995	0.229629
528.965860	0.231636
529.327669	0.230177
529.689421	0.231258
530.051117	0.232291
530.412755	0.229702
530.774337	0.232093
531.135862	0.232135
531.497331	0.231860
531.858743	0.234497
532.220098	0.231253
532.581396	0.233911
532.942638	0.234276
533.303824	0.235389
533.664953	0.234936
534.026025	0.236638
534.387040	0.234799
534.747999	0.234582
535.108902	0.233265
535.469748	0.238415
535.830537	0.236241
536.191270	0.236897
536.551947	0.236542
536.912567	0.236329
537.273131	0.238138
537.633638	0.238244
537.994089	0.238761
538.354483	0.239541
538.714821	0.236505
539.075103	0.236600
539.435328	0.237185
539.795497	0.240894
540.155609	0.237537
540.515665	0.235389
540.875665	0.241340
541.235609	0.239791
541.595496	0.239933
541.955328	0.236503
542.315102	0.239345
542.674821	0.240287
543.034483	0.240123
543.394090	0.240187
543.753640	0.241924
544.113134	0.236586
544.472571	0.240065
544.831953	0.236756
545.191278	0.241329
545.550548	0.240742
545.909761	0.237358
546.268918	0.237897
546.628019	0.236430
546.987064	0.239158
547.346053	0.241098
547.704986	0.238659
548.063863	0.239204
548.422684	0.239285
548.781449	0.241205
549.140158	0.238870
549.498811	0.241805
549.857408	0.244405
550.215949	0.239557
550.574434	0.242870
550.932864	0.240525
551.291237	0.239293
551.649555	0.240650
552.007817	0.240410
552.366022	0.241258
552.724173	0.241336
553.082267	0.241871
553.440305	0.238703
553.798288	0.243142
554.156215	0.239816
554.514086	0.240421
554.871902	0.243399
555.229661	0.242738
555.587365	0.243262
555.945014	0.245874
556.302606	0.242802
556.660143	0.245035
557.017625	0.241634
557.375050	0.244053
557.732421	0.241266
558.089735	0.242908
558.446994	0.242842
558.804197	0.242328
559.161345	0.242242
559.518437	0.245641
559.875474	0.243196
560.232455	0.242887
560.589381	0.244106
560.946251	0.244058
561.303065	0.241816
561.659825	0.242881
562.016528	0.244806
562.373177	0.247739
562.729770	0.244722
563.086307	0.247117
563.442789	0.244743
563.799216	0.247574
564.155587	0.246210
564.511904	0.247265
564.868164	0.247392
565.224370	0.247574
565.580520	0.248830
565.936615	0.249032
566.292654	0.252110
566.648638	0.249019
567.004567	0.249750
567.360441	0.250512
567.716260	0.252279
568.072023	0.250425
568.427732	0.250896
568.783385	0.253262
569.138982	0.251480
569.494525	0.251142
569.850013	0.253947
570.205445	0.252422
570.560823	0.255102
570.916145	0.256844
571.271412	0.255152
571.626625	0.256558
571.981782	0.256917
572.336884	0.257886
572.691931	0.257711
573.046923	0.258863
573.401860	0.260288
573.756743	0.261840
574.111570	0.261079
574.466342	0.261244
574.821059	0.260380
575.175722	0.263550
575.530330	0.262924
575.884882	0.263128
576.239380	0.265159
576.593823	0.265760
576.948211	0.265296
577.302544	0.268325
577.656823	0.268023
578.011047	0.268020
578.365216	0.268838
578.719330	0.270747
579.073389	0.270791
579.427394	0.272024
579.781344	0.272521
580.135239	0.274624
580.489080	0.273729
580.842866	0.276740
581.196597	0.276916
581.550273	0.275337
581.903895	0.276202
582.257463	0.274347
582.610975	0.277999
582.964434	0.277330
583.317837	0.279689
583.671186	0.279973
584.024481	0.280429
584.377721	0.282686
584.730906	0.283363
585.084037	0.282434
585.437113	0.284370
585.790135	0.283715
586.143103	0.286659
586.496016	0.287728
586.848874	0.285362
587.201679	0.286000
587.554428	0.289411
587.907124	0.287988
588.259765	0.288834
588.612352	0.289228
588.964884	0.293113
589.317362	0.293099
589.669786	0.292652
590.022155	0.290691
590.374470	0.290423
590.726731	0.292800
591.078937	0.297264
591.431090	0.293348
591.783188	0.297950
592.135232	0.298311
592.487222	0.297925
592.839157	0.296313
593.191038	0.298674
593.542866	0.300725
593.894639	0.304304
594.246358	0.302117
594.598022	0.301551
594.949633	0.305149
595.301190	0.305898
595.652692	0.305180
596.004141	0.301204
596.355535	0.309562
596.706876	0.309802
597.058162	0.312087
597.409395	0.309586
597.760573	0.307520
598.111698	0.310360
598.462768	0.311095
598.813785	0.312197
599.164748	0.313778
599.515657	0.313623
599.866511	0.317228
600.217312	0.312195
600.568060	0.317780
600.918753	0.313768
601.269392	0.315193
601.619978	0.318181
601.970510	0.316085
602.320988	0.316344
602.671412	0.313829
603.021783	0.316247
603.372100	0.317979
603.722363	0.317150
604.072572	0.318433
604.422728	0.318093
604.772830	0.319953
605.122878	0.319484
605.472872	0.320309
605.822813	0.318560
606.172701	0.321008
606.522534	0.318561
606.872314	0.318638
607.222041	0.319577
607.571714	0.317857
607.921333	0.318799
608.270899	0.318510
608.620411	0.315366
608.969870	0.319369
609.319276	0.319252
609.668627	0.319359
610.017926	0.317944
610.367171	0.316431
610.716362	0.317134
611.065500	0.317138
611.414585	0.315971
611.763616	0.316649
612.112594	0.317213
612.461518	0.316509
612.810389	0.314556
613.159207	0.316536
613.507971	0.318374
613.856682	0.313846
614.205340	0.316070
614.553945	0.312270
614.902496	0.316702
615.250994	0.314391
615.599439	0.314916
615.947830	0.314811
616.296169	0.315423
616.644454	0.314934
616.992686	0.315194
617.340864	0.312795
617.688990	0.316525
618.037063	0.313113
618.385082	0.315437
618.733048	0.311759
619.080961	0.314146
619.428821	0.313568
619.776628	0.313375
620.124382	0.315344
620.472083	0.315598
620.819731	0.314915
621.167326	0.318943
621.514868	0.318724
621.862357	0.322302
622.209793	0.322454
622.557176	0.324548
622.904506	0.325530
623.251783	0.327780
623.599007	0.330315
623.946179	0.329968
624.293297	0.331834
624.640363	0.335547
624.987376	0.336328
625.334336	0.338636
625.681243	0.340916
626.028097	0.341386
626.374899	0.342692
626.721647	0.342606
627.068343	0.346103
627.414987	0.347210
627.761577	0.349194
628.108115	0.347340
628.454600	0.352737
628.801032	0.349857
629.147412	0.351946
629.493739	0.352367
629.840014	0.355591
630.186236	0.352899
630.532405	0.358237
630.878521	0.355757
631.224585	0.357856
631.570597	0.361860
631.916556	0.360049
632.262462	0.360330
632.608316	0.362708
632.954117	0.363552
633.299866	0.363903
633.645562	0.364414
633.991206	0.368926
634.336797	0.371799
634.682336	0.373705
635.027823	0.375416
635.373257	0.375948
635.718639	0.379526
636.063968	0.378782
636.409245	0.384706
636.754470	0.385045
637.099642	0.387927
637.444762	0.390333
637.789829	0.389976
638.134845	0.393199
638.479808	0.394260
638.824719	0.394342
639.169577	0.397849
639.514383	0.397026
639.859137	0.401188
640.203839	0.401317
640.548489	0.401592
640.893086	0.403362
641.237632	0.404342
641.582125	0.402782
641.926566	0.404631
642.270955	0.404592
642.615292	0.405251
642.959576	0.404295
643.303809	0.404554
643.647990	0.403963
643.992118	0.404303
644.336195	0.408570
644.680219	0.407021
645.024192	0.407601
645.368112	0.401038
645.711981	0.400085
646.055797	0.395418
646.399562	0.397776
646.743274	0.389692
647.086935	0.387487
647.430544	0.387537
647.774101	0.385729
648.117606	0.385789
648.461059	0.386130
648.804460	0.388895
649.147810	0.394254
649.491108	0.395674
649.834354	0.397155
650.177548	0.402916
650.520690	0.407717
650.863781	0.408952
651.206820	0.408672
651.549807	0.413018
651.892742	0.417246
652.235626	0.416569
652.578458	0.417843
652.921238	0.423250
653.263967	0.421246
653.606644	0.425692
653.949269	0.424998
654.291843	0.429414
654.634365	0.425457
654.976836	0.428701
655.319255	0.429118
655.661622	0.430695
656.003938	0.430986
656.346203	0.433321
656.688416	0.431701
657.030577	0.434650
657.372687	0.436778
657.714746	0.437538
658.056753	0.434747
658.398708	0.438999
658.740612	0.439362
659.082465	0.436123
659.424266	0.436572
659.766016	0.435646
660.107715	0.438493
660.449362	0.437091
660.790958	0.437769
661.132503	0.437946
661.473996	0.436421
661.815438	0.437457
662.156829	0.436947
662.498168	0.437600
662.839456	0.439246
663.180693	0.437290
663.521879	0.437034
663.863013	0.438228
664.204097	0.436414
664.545129	0.433315
664.886110	0.433643
665.227040	0.431002
665.567918	0.433793
665.908746	0.431918
666.249522	0.431259
666.590248	0.432719
666.930922	0.430958
667.271545	0.429038
667.612118	0.429235
667.952639	0.431456
668.293109	0.429517
668.633528	0.432826
668.973896	0.432535
669.314213	0.432863
669.654480	0.434546
669.994695	0.434523
670.334859	0.436007
670.674973	0.436241
671.015035	0.435906
671.355047	0.436084
671.695008	0.437203
672.034918	0.439281
672.374777	0.438252
672.714585	0.439858
673.054342	0.439403
673.394049	0.438980
673.733705	0.437086
674.073310	0.437903
674.412864	0.441263
674.752368	0.441434
675.091820	0.441555
675.431223	0.446427
675.770574	0.446304
676.109875	0.449245
676.449125	0.449191
676.788324	0.451523
677.127473	0.457529
677.466571	0.456512
677.805619	0.458385
678.144616	0.459479
678.483562	0.461003
678.822458	0.463494
679.161303	0.464873
679.500098	0.464625
679.838842	0.466362
680.177535	0.465729
680.516179	0.464864
680.854771	0.463857
681.193314	0.457714
681.531805	0.448854
681.870247	0.436832
682.208638	0.429511
682.546978	0.428444
682.885268	0.430302
683.223508	0.436621
683.561697	0.440227
683.899836	0.442661
684.237925	0.446383
684.575963	0.448640
684.913951	0.452313
685.251889	0.447703
685.589776	0.449274
685.927614	0.452043
686.265401	0.446633
686.603137	0.447770
686.940824	0.441661
687.278460	0.440012
687.616046	0.438915
687.953582	0.434335
688.291068	0.435755
688.628504	0.431729
688.965889	0.433643
689.303224	0.437949
689.640510	0.441789
689.977745	0.447081
690.314930	0.455237
690.652065	0.459258
690.989150	0.467525
691.326185	0.473637
691.663170	0.478082
692.000105	0.485058
692.336990	0.492848
692.673825	0.495105
693.010610	0.502011
693.347345	0.507468
693.684030	0.509135
694.020665	0.513655
694.357251	0.522256
694.693786	0.521994
695.030272	0.526593
695.366707	0.529404
695.703093	0.532933
696.039429	0.531312
696.375716	0.531984
696.711952	0.534492
697.048139	0.536838
697.384276	0.538703
697.720363	0.537171
698.056400	0.536676
698.392388	0.541832
698.728326	0.545408
699.064214	0.548354
699.400053	0.548046
699.735842	0.552229
700.071581	0.554696
700.407270	0.557791
700.742910	0.560622
701.078501	0.567145
701.414042	0.567315
701.749533	0.570413
702.084974	0.578256
702.420366	0.571312
702.755709	0.578947
703.091002	0.586979
703.426246	0.580347
703.761440	0.586346
704.096584	0.590986
704.431679	0.587000
704.766725	0.590045
705.101721	0.591287
705.436668	0.587217
705.771565	0.594388
706.106413	0.591614
706.441212	0.586337
706.775961	0.585942
707.110661	0.588374
707.445311	0.584462
707.779913	0.581904
708.114465	0.579642
708.448967	0.577241
708.783421	0.569382
709.117825	0.563116
709.452180	0.564065
709.786485	0.557213
710.120742	0.547002
710.454949	0.549677
710.789107	0.541691
711.123216	0.532825
711.457275	0.534225
711.791286	0.524859
712.125247	0.524224
712.459159	0.535005
712.793023	0.526857
713.126837	0.531566
713.460602	0.532118
713.794318	0.541752
714.127985	0.540159
714.461602	0.549763
714.795171	0.553359
715.128691	0.561525
715.462162	0.568776
715.795584	0.574725
716.128957	0.576647
716.462281	0.583514
716.795556	0.587804
717.128782	0.592506
717.461960	0.602264
717.795088	0.599881
718.128167	0.606864
718.461198	0.614732
718.794180	0.615229
719.127113	0.618167
719.459997	0.621792
719.792833	0.628350
720.125619	0.629260
720.458357	0.634847
720.791046	0.634470
721.123686	0.638477
721.456278	0.645060
721.788821	0.642505
722.121315	0.646710
722.453761	0.651025
722.786158	0.648075
723.118506	0.645081
723.450805	0.652648
723.783056	0.648904
724.115259	0.646341
724.447412	0.646671
724.779518	0.647847
725.111574	0.646635
725.443582	0.641926
725.775542	0.643676
726.107453	0.636634
726.439315	0.635816
726.771129	0.634138
727.102895	0.628149
727.434612	0.620353
727.766281	0.618444
728.097901	0.618813
728.429473	0.618046
728.760996	0.616547
729.092471	0.615737
729.423897	0.620113
729.755276	0.619699
730.086606	0.619124
730.417887	0.614092
730.749120	0.605129
731.080305	0.595808
731.411442	0.591856
731.742530	0.596341
732.073570	0.594813
732.404562	0.587369
732.735506	0.589379
733.066401	0.594219
733.397249	0.603748
733.728048	0.615243
734.058798	0.626747
734.389501	0.637578
734.720156	0.647693
735.050762	0.655134
735.381320	0.656226
735.711831	0.665577
736.042293	0.670209
736.372707	0.666019
736.703073	0.671236
737.033391	0.673099
737.363661	0.669777
737.693883	0.665317
738.024056	0.664160
738.354182	0.664675
738.684260	0.653333
739.014290	0.649963
739.344272	0.650541
739.674207	0.643298
740.004093	0.643953
740.333931	0.643660
740.663722	0.644050
740.993464	0.644367
741.323159	0.648427
741.652806	0.653469
741.982405	0.657587
742.311956	0.663149
742.641460	0.664707
742.970915	0.668681
743.300323	0.676990
743.629683	0.682663
743.958996	0.684344
744.288260	0.689027
744.617477	0.694547
744.946647	0.696333
745.275768	0.702042
745.604842	0.701188
745.933869	0.711211
746.262847	0.712102
746.591778	0.704689
746.920662	0.711961
747.249498	0.718417
747.578286	0.708730
747.907027	0.705183
748.235720	0.706619
748.564365	0.700624
748.892963	0.700295
749.221514	0.703903
749.550017	0.709394
749.878473	0.709627
750.206881	0.714375
750.535242	0.716169
750.863555	0.715983
751.191821	0.717352
751.520039	0.720435
751.848210	0.725702
752.176334	0.718044
752.504411	0.717532
752.832440	0.724989
753.160421	0.727707
753.488356	0.726661
753.816243	0.724970
754.144082	0.732880
754.471875	0.737336
754.799620	0.731802
755.127318	0.733151
755.454969	0.733122
755.782572	0.732554
756.110129	0.737576
756.437638	0.740486
756.765100	0.737129
757.092515	0.734347
757.419882	0.733608
757.747203	0.738913
758.074477	0.737329
758.401703	0.735035
758.728882	0.730158
759.056014	0.729087
759.383099	0.728789
759.710138	0.728954
760.037129	0.725464
760.364073	0.719526
760.690970	0.722511
761.017820	0.728225
761.344623	0.722998
761.671379	0.714889
761.998088	0.703181
762.324751	0.680705
762.651366	0.639391
762.977935	0.572123
763.304456	0.520523
763.630931	0.511134
763.957359	0.549512
764.283740	0.594485
764.610074	0.621374
764.936362	0.651342
765.262602	0.678753
765.588796	0.699841
765.914943	0.719181
766.241044	0.734932
766.567097	0.742125
766.893104	0.752034
767.219064	0.758214
767.544978	0.764647
767.870845	0.778224
768.196665	0.782075
768.522438	0.779566
768.848165	0.780793
769.173846	0.790154
769.499479	0.794248
769.825066	0.797935
770.150607	0.803288
770.476101	0.798042
770.801548	0.799649
771.126949	0.811439
771.452303	0.814170
771.777611	0.814484
772.102872	0.812085
772.428087	0.818694
772.753256	0.822469
773.078378	0.824364
773.403453	0.833220
773.728482	0.836225
774.053465	0.830414
774.378401	0.833810
774.703291	0.842250
775.028135	0.841932
775.352932	0.843161
775.677683	0.846960
776.002388	0.847076
776.327046	0.845750
776.651658	0.849659
776.976224	0.852795
777.300743	0.853245
777.625216	0.855150
777.949643	0.857345
778.274024	0.856892
778.598359	0.859136
778.922647	0.856871
779.246889	0.858304
779.571086	0.860861
779.895236	0.864317
780.219339	0.861213
780.543397	0.858679
780.867409	0.856608
781.191374	0.859104
781.515294	0.860531
781.839167	0.858956
782.162995	0.862035
782.486776	0.859980
782.810511	0.860100
783.134201	0.863512
783.457844	0.862473
783.781441	0.865046
784.104993	0.870856
784.428498	0.871945
784.751958	0.866555
785.075372	0.869575
785.398739	0.872001
785.722061	0.869966
786.045337	0.864082
786.368568	0.869774
786.691752	0.871905
787.014891	0.857482
787.337983	0.848944
787.661030	0.841677
787.984031	0.824209
788.306987	0.810492
788.629897	0.813525
788.952760	0.818162
789.275579	0.822628
789.598351	0.836909
789.921078	0.848932
790.243759	0.851546
790.566395	0.856815
790.888984	0.863911
791.211529	0.868831
791.534027	0.871766
791.856480	0.874477
792.178888	0.880556
792.501249	0.882856
792.823566	0.882042
793.145836	0.884394
793.468062	0.885393
793.790241	0.885903
794.112375	0.882632
794.434464	0.878838
794.756507	0.879096
795.078505	0.877970
795.400457	0.873291
795.722364	0.861546
796.044226	0.853575
796.366042	0.852188
796.687812	0.855396
797.009538	0.852026
797.331218	0.855319
797.652852	0.859825
797.974442	0.865116
798.295986	0.863554
798.617484	0.866991
798.938938	0.871717
799.260346	0.876201
799.581709	0.877963
799.903026	0.880020
800.224299	0.880905
800.545526	0.885135
800.866708	0.889175
801.187845	0.893419
801.508936	0.891963
801.829983	0.890275
802.150984	0.892672
802.471940	0.898179
802.792851	0.897024
803.113717	0.897979
803.434538	0.896768
803.755314	0.897535
804.076045	0.900571
804.396731	0.901370
804.717372	0.899849
805.037967	0.902008
805.358518	0.899814
805.679024	0.896855
805.999485	0.896297
806.319901	0.897407
806.640272	0.898701
806.960598	0.897308
807.280879	0.893887
807.601115	0.892829
807.921306	0.896315
808.241453	0.896950
808.561554	0.893976
808.881611	0.895387
809.201623	0.896161
809.521590	0.895588
809.841513	0.897684
810.161390	0.896715
810.481223	0.897938
810.801011	0.901045
811.120755	0.902737
811.440453	0.902045
811.760107	0.900468
812.079716	0.901262
812.399281	0.904471
812.718801	0.905270
813.038276	0.907909
813.357707	0.907240
813.677093	0.904145
813.996434	0.907901
814.315731	0.908948
814.634983	0.909863
814.954191	0.907745
815.273354	0.905524
815.592473	0.902299
815.911547	0.902323
816.230577	0.898319
816.549562	0.896115
816.868502	0.897046
817.187399	0.893234
817.506250	0.887986
817.825058	0.890452
818.143821	0.886974
818.462539	0.881171
818.781213	0.873781
819.099843	0.862530
819.418429	0.848737
819.736970	0.829867
820.055466	0.809875
820.373919	0.785728
820.692327	0.752154
821.010691	0.717623
821.329011	0.641256
821.647286	0.526825
821.965517	0.413131
822.283704	0.370875
822.601847	0.372217
822.919945	0.408348
823.237999	0.441172
823.556010	0.487465
823.873976	0.543115
824.191897	0.593927
824.509775	0.636115
824.827609	0.681377
825.145398	0.703774
825.463144	0.705776
825.780845	0.688636
826.098502	0.670510
826.416116	0.624734
826.733685	0.581509
827.051210	0.572777
827.368692	0.587698
827.686129	0.624272
828.003522	0.677435
828.320872	0.724337
828.638177	0.768615
828.955439	0.800800
829.272656	0.822684
829.589830	0.840237
829.906960	0.855132
830.224046	0.866329
830.541088	0.878036
830.858086	0.880923
831.175041	0.888013
831.491952	0.887315
831.808819	0.883389
832.125642	0.877845
832.442421	0.862735
832.759157	0.840350
833.075849	0.795511
833.392497	0.732123
833.709101	0.691327
834.025662	0.700534
834.342179	0.731878
834.658653	0.770354
834.975083	0.806612
835.291469	0.831699
835.607811	0.854776
835.924110	0.870911
836.240366	0.887642
836.556578	0.902184
836.872746	0.908933
837.188871	0.914799
837.504952	0.921010
837.820990	0.924494
838.136984	0.927269
838.452935	0.931126
838.768842	0.931362
839.084706	0.925991
839.400526	0.900443
839.716303	0.860498
840.032037	0.837870
840.347727	0.840588
840.663373	0.858942
840.978977	0.880393
841.294537	0.902426
841.610054	0.918096
841.925527	0.925822
842.240957	0.932494
842.556344	0.940564
842.871687	0.946577
843.186987	0.951490
843.502244	0.950598
843.817458	0.951871
844.132629	0.955908
844.447756	0.960472
844.762840	0.960689
845.077881	0.959694
845.392879	0.960668
845.707833	0.962205
846.022745	0.965495
846.337613	0.965478
846.652438	0.965207
846.967221	0.964183
847.281960	0.965252
847.596656	0.967391
847.911309	0.964940
848.225919	0.967781
848.540485	0.969633
848.855009	0.968915
849.169490	0.968981
849.483928	0.969093
849.798323	0.970093
850.112675	0.969736
850.426984	0.970531
850.741251	0.970630
851.055474	0.969820
851.369654	0.967699
851.683792	0.968769
851.997887	0.969956
852.311938	0.971814
852.625947	0.970404
852.939914	0.968092
853.253837	0.968539
853.567718	0.970004
853.881555	0.971266
854.195350	0.967632
854.509103	0.968838
854.822812	0.970762
855.136479	0.970165
855.450103	0.969511
855.763685	0.969128
856.077224	0.968612
856.390720	0.969542
856.704173	0.969864
857.017584	0.968729
857.330953	0.966960
857.644278	0.967078
857.957561	0.968517
858.270802	0.966970
858.584000	0.968106
858.897155	0.966788
859.210268	0.968219
859.523339	0.968450
859.836367	0.970018
860.149352	0.971213
860.462295	0.969909
860.775195	0.970742
861.088054	0.969828
861.400869	0.969098
861.713642	0.971529
862.026373	0.970178
862.339062	0.971384
862.651708	0.968129
862.964312	0.967809
863.276873	0.969238
863.589392	0.968786
863.901869	0.966861
864.214303	0.965246
864.526696	0.964657
864.839045	0.964644
865.151353	0.962354
865.463619	0.963432
865.775842	0.962959
866.088023	0.963047
866.400162	0.961308
866.712258	0.963640
867.024313	0.962236
867.336325	0.963421
867.648296	0.962855
867.960224	0.961843
868.272110	0.962378
868.583954	0.963816
868.895755	0.964624
869.207515	0.961570
869.519233	0.959641
869.830909	0.960734
870.142542	0.963274
870.454134	0.962836
870.765684	0.961216
871.077191	0.957697
871.388657	0.959013
871.700081	0.958105
872.011463	0.959544
872.322803	0.958308
872.634101	0.956714
872.945357	0.955431
873.256571	0.953234
873.567744	0.953431
873.878874	0.954395
874.189963	0.952090
874.501010	0.951554
874.812015	0.950071
875.122979	0.951445
875.433900	0.954436
875.744780	0.954607
876.055618	0.951619
876.366415	0.950448
876.677169	0.950638
876.987882	0.951984
877.298554	0.951298
877.609183	0.948260
877.919771	0.946508
878.230317	0.943644
878.540822	0.940883
878.851285	0.935428
879.161707	0.927738
879.472087	0.915742
879.782425	0.900115
880.092722	0.866476
880.402977	0.814720
880.713191	0.754785
881.023363	0.697121
881.333494	0.663119
881.643583	0.634966
881.953631	0.634720
882.263637	0.663319
882.573602	0.702487
882.883526	0.727727
883.193408	0.751879
883.503248	0.773650
883.813048	0.801579
884.122806	0.829460
884.432522	0.852217
884.742197	0.873676
885.051831	0.883323
885.361424	0.892293
885.670975	0.904299
885.980485	0.915726
886.289954	0.920193
886.599382	0.925094
886.908768	0.929188
887.218113	0.936126
887.527417	0.939499
887.836680	0.942738
888.145901	0.943491
888.455082	0.947280
888.764221	0.951141
889.073319	0.952619
889.382376	0.953640
889.691392	0.953846
890.000366	0.953702
890.309300	0.955362
890.618193	0.954648
890.927044	0.952315
891.235855	0.952948
891.544625	0.951867
891.853353	0.952693
892.162041	0.949922
892.470687	0.943235
892.779293	0.938316
893.087858	0.935197
893.396381	0.928160
893.704864	0.913849
894.013306	0.890218
894.321707	0.864313
894.630068	0.850368
894.938387	0.845674
895.246665	0.846124
895.554903	0.858778
895.863100	0.871603
896.171256	0.888742
896.479371	0.907766
896.787446	0.920703
897.095480	0.925510
897.403473	0.929018
897.711425	0.933240
898.019336	0.941633
898.327207	0.943838
898.635038	0.945932
898.942827	0.945045
899.250576	0.949309
899.558284	0.952653
899.865952	0.954229
900.173579	0.956268
900.481165	0.956700
900.788711	0.960115
901.096216	0.961897
901.403681	0.961964
901.711105	0.963757
902.018489	0.964687
902.325832	0.962852
902.633135	0.961787
902.940397	0.956788
903.247619	0.945315
903.554800	0.920284
903.861941	0.879366
904.169041	0.846096
904.476101	0.829545
904.783121	0.829903
905.090100	0.845563
905.397039	0.866944
905.703938	0.887722
906.010796	0.907494
906.317614	0.924344
906.624391	0.935075
906.931129	0.944692
907.237826	0.953585
907.544483	0.959780
907.851099	0.963045
908.157675	0.968468
908.464211	0.970195
908.770707	0.973268
909.077163	0.974742
909.383578	0.974303
909.689954	0.974588
909.996289	0.975905
910.302584	0.978507
910.608839	0.980421
910.915054	0.979648
911.221229	0.977755
911.527363	0.976316
911.833458	0.977377
912.139513	0.976301
912.445527	0.976030
912.751502	0.974367
913.057436	0.972570
913.363331	0.970205
913.669186	0.966386
913.975000	0.962076
914.280775	0.956916
914.586510	0.948880
914.892205	0.936710
915.197859	0.915049
915.503475	0.888968
915.809050	0.869774
916.114585	0.863419
916.420081	0.862261
916.725536	0.859183
917.030952	0.866980
917.336328	0.879738
917.641665	0.894526
917.946961	0.909641
918.252218	0.920474
918.557435	0.928976
918.862612	0.937316
919.167750	0.943868
919.472848	0.947931
919.777906	0.953056
920.082925	0.958564
920.387904	0.961620
920.692843	0.963712
920.997743	0.964900
921.302603	0.967728
921.607423	0.969982
921.912204	0.972175
922.216946	0.972982
922.521647	0.973403
922.826310	0.974604
923.130932	0.977342
923.435516	0.978580
923.740059	0.979944
924.044564	0.978460
924.349028	0.981666
924.653454	0.983110
924.957840	0.985247
925.262186	0.984974
925.566493	0.984012
925.870761	0.985452
926.174989	0.986562
926.479178	0.988506
926.783328	0.988296
927.087438	0.988416
927.391509	0.987354
927.695541	0.990873
927.999533	0.989814
928.303486	0.988599
928.607400	0.992019
928.911275	0.990513
929.215110	0.990519
929.518906	0.989952
929.822663	0.989680
930.126381	0.991864
930.430060	0.990025
930.733699	0.989691
931.037299	0.990040
931.340861	0.991360
931.644383	0.989434
931.947866	0.989291
932.251309	0.989996
932.554714	0.991770
932.858080	0.990309
933.161407	0.990769
933.464694	0.991401
933.767943	0.989810
934.071153	0.991866
934.374323	0.991923
934.677455	0.991390
934.980548	0.991980
935.283602	0.989949
935.586617	0.992034
935.889593	0.990484
936.192530	0.990355
936.495428	0.991312
936.798287	0.990563
937.101108	0.989864
937.403890	0.989445
937.706632	0.990520
938.009336	0.986874
938.312002	0.986952
938.614628	0.984534
938.917216	0.983737
939.219765	0.980970
939.522275	0.983271
939.824747	0.983046
940.127179	0.982903
940.429573	0.984743
940.731929	0.984551
941.034246	0.984478
941.336524	0.985564
941.638763	0.986196
941.940964	0.986588
942.243126	0.986496
942.545250	0.987854
942.847335	0.988287
943.149381	0.988644
943.451389	0.987963
943.753359	0.989526
944.055290	0.991011
944.357182	0.989679
944.659036	0.988366
944.960851	0.989152
945.262628	0.990682
945.564367	0.989919
945.866067	0.989839
946.167729	0.989717
946.469352	0.990305
946.770937	0.988007
947.072484	0.991422
947.373992	0.989850
947.675462	0.990736
947.976893	0.989534
948.278286	0.990956
948.579641	0.991649
948.880958	0.990935
949.182236	0.991008
949.483476	0.990382
949.784678	0.991009
950.085841	0.991213
950.386967	0.991689
950.688054	0.990131
950.989103	0.991752
951.290114	0.988424
951.591087	0.989749
951.892021	0.989609
952.192917	0.988896
952.493776	0.989131
952.794596	0.987391
953.095378	0.987180
953.396122	0.988655
953.696828	0.988062
953.997496	0.989999
954.298126	0.990353
954.598718	0.990829
954.899272	0.991791
955.199788	0.989917
955.500266	0.992490
955.800706	0.993073
956.101108	0.993441
956.401472	0.994028
956.701798	0.993531
957.002087	0.992658
957.302337	0.993863
957.602550	0.995260
957.902724	0.995602
958.202861	0.994824
958.502960	0.995916
958.803022	0.993609
959.103045	0.995445
959.403031	0.996467
959.702979	0.994860
960.002889	0.995794
960.302762	0.994939
960.602596	0.996243
960.902393	0.994594
961.202153	0.996684
961.501875	0.997208
961.801559	0.996080
962.101205	0.995682
962.400814	0.995889
962.700385	0.995320
962.999918	0.996428
963.299414	0.996665
963.598873	0.994214
963.898293	0.995724
964.197677	0.995681
964.497022	0.996543
964.796331	0.997517
965.095601	0.997103
965.394835	0.995783
965.694030	0.996267
965.993189	0.996818
966.292309	0.995913
966.591393	0.997403
966.890439	0.998054
967.189447	0.996072
967.488419	0.997281
967.787353	0.996529
968.086249	0.996984
968.385108	0.997366
968.683930	0.997015
968.982714	0.997385
969.281462	0.996676
969.580172	0.997056
969.878844	0.997322
970.177480	0.995178
970.476078	0.997591
970.774639	0.996711
971.073162	0.998074
971.371649	0.996401
971.670098	0.995688
971.968510	0.997434
972.266885	0.995807
972.565223	0.996186
972.863524	0.995247
973.161788	0.995483
973.460014	0.997339
973.758204	0.995860
974.056356	0.995501
974.354471	0.994505
974.652550	0.996776
974.950591	0.996966
975.248595	0.996969
975.546563	0.996798
975.844493	0.997466
976.142386	0.996807
976.440243	0.997772
976.738062	0.997331
977.035845	0.997237
977.333590	0.996322
977.631299	0.997827
977.928971	0.996652
978.226606	0.996136
978.524204	0.995587
978.821765	0.998115
979.119290	0.996564
979.416777	0.995878
979.714228	0.997201
980.011642	0.995720
980.309020	0.997409
980.606360	0.996989
980.903664	0.998425
981.200931	0.995698
981.498162	0.996147
981.795356	0.994520
982.092513	0.995155
982.389633	0.993667
982.686717	0.992088
982.983764	0.991947
983.280775	0.990103
983.577749	0.990260
983.874686	0.992419
984.171587	0.991383
984.468451	0.994176
984.765279	0.994308
985.062070	0.993402
985.358824	0.995071
985.655543	0.995371
985.952224	0.996065
986.248869	0.996144
986.545478	0.997520
986.842050	0.998752
987.138586	0.995211
987.435086	0.997446
987.731549	0.997583
988.027975	0.998003
988.324366	0.997123
988.620719	0.997562
988.917037	0.996055
989.213318	0.998327
989.509563	0.998469
989.805772	0.998976
990.101944	0.998500
990.398080	0.996854
990.694180	0.998123
990.990244	0.997863
991.286271	0.997394
991.582262	0.997938
991.878217	0.998340
992.174136	0.998348
992.470019	0.998087
992.765865	0.997770
993.061676	0.997723
993.357450	0.997229
993.653188	0.995883
993.948890	0.997380
994.244556	0.997923
994.540186	0.996687
994.835780	0.996196
995.131337	0.997475
995.426859	0.996602
995.722345	0.996812
996.017795	0.996307
996.313208	0.996224
996.608586	0.996111
996.903928	0.996680
997.199234	0.995662
997.494504	0.997055
997.789738	0.996198
998.084936	0.995686
998.380099	0.996918
998.675225	0.997149
998.970316	0.997880
999.265371	0.997894
999.560390	0.997471
999.855373	0.998659
1000.150320	0.996886
1000.445232	0.997665
1000.740108	0.997580
1001.034948	0.998697
1001.329752	0.998843
1001.624521	0.998418
1001.919254	0.998758
1002.213951	0.997767
1002.508613	0.998352
1002.803239	0.998678
1003.097829	0.998596
1003.392384	0.998684
1003.686903	0.997511
1003.981386	0.998438
1004.275834	0.998800
1004.570246	0.999131
1004.864623	0.997459
1005.158964	1.000227
1005.453270	0.998018
1005.747540	0.997026
1006.041775	0.998429
1006.335974	0.999277
1006.630138	0.998969
1006.924266	0.999871
1007.218359	1.000238
1007.512416	0.999383
1007.806438	0.999360
1008.100425	0.999703
1008.394376	0.998392
1008.688292	0.998676
1008.982172	1.000143
1009.276017	0.999228
1009.569827	0.998804
1009.863602	0.999377
1010.157341	1.000723
1010.451045	1.000124
1010.744714	0.998130
1011.038347	0.997919
1011.331945	0.998543
1011.625508	0.998483
1011.919036	0.998284
1012.212528	0.999584
1012.505986	0.997351
1012.799408	0.999707
1013.092795	0.999577
1013.386147	0.998824
1013.679464	0.998958
1013.972745	0.998298
1014.265992	0.997357
1014.559204	0.998724
1014.852380	0.998971
1015.145521	0.998974
1015.438628	0.998410
1015.731699	0.998791
1016.024736	0.998952
1016.317737	0.998914
1016.610703	0.999192
1016.903635	0.998404
1017.196531	0.998226
1017.489393	0.998534
1017.782219	0.999446
1018.075011	0.997567
1018.367768	0.998675
1018.660490	0.998632
1018.953177	0.998632
1019.245829	0.998632
