Dividing Wavelength (nm)	Counts (n)	Blue Motor Position (mm): 0.000000	Red Motor Position (mm): 4.500000	
326.493990	1.001379
326.888308	1.001379
327.282561	1.001379
327.676750	1.000136
328.070874	0.999033
328.464933	1.000206
328.858929	1.000556
329.252859	0.999927
329.646726	1.000414
330.040528	1.000212
330.434265	0.998936
330.827938	1.002072
331.221547	1.000014
331.615091	1.000139
332.008571	0.999985
332.401986	0.999674
332.795338	1.000226
333.188625	0.998162
333.581847	1.000476
333.975006	0.999995
334.368100	0.999374
334.761129	0.999755
335.154095	1.001690
335.546996	0.997991
335.939833	0.992452
336.332606	0.992522
336.725315	0.993921
337.117960	0.994422
337.510540	0.992549
337.903056	0.993147
338.295508	0.993170
338.687896	0.993817
339.080220	0.993290
339.472480	0.993085
339.864676	0.993593
340.256807	0.993325
340.648875	0.994501
341.040879	0.993974
341.432818	0.993933
341.824694	0.993210
342.216506	0.995496
342.608253	0.992731
342.999937	0.993670
343.391557	0.994165
343.783113	0.993078
344.174605	0.993060
344.566033	0.994115
344.957397	0.993340
345.348697	0.992022
345.739934	0.992496
346.131106	0.993412
346.522215	0.993453
346.913260	0.992037
347.304241	0.994028
347.695159	0.994230
348.086012	0.991432
348.476802	0.992750
348.867528	0.992414
349.258191	0.992262
349.648789	0.993373
350.039324	0.992618
350.429796	0.993535
350.820203	0.994051
351.210548	0.993477
351.600828	0.992693
351.991045	0.992147
352.381198	0.992508
352.771288	0.991997
353.161314	0.992834
353.551276	0.994942
353.941175	0.992704
354.331010	0.991973
354.720782	0.993151
355.110490	0.991984
355.500135	0.993423
355.889717	0.992223
356.279235	0.991846
356.668689	0.991743
357.058080	0.992558
357.447408	0.993919
357.836672	0.993504
358.225873	0.993341
358.615010	0.993525
359.004084	0.993449
359.393095	0.993183
359.782043	0.991890
360.170927	0.993264
360.559748	0.992777
360.948505	0.991225
361.337199	0.991155
361.725830	0.991967
362.114398	0.991950
362.502903	0.992352
362.891344	0.992811
363.279722	0.991566
363.668037	0.992220
364.056289	0.991108
364.444478	0.992018
364.832603	0.992616
365.220665	0.991285
365.608665	0.991379
365.996601	0.991123
366.384474	0.992211
366.772284	0.991634
367.160031	0.991203
367.547715	0.989890
367.935336	0.990446
368.322893	0.991118
368.710388	0.988721
369.097820	0.989856
369.485189	0.987646
369.872495	0.986437
370.259738	0.984918
370.646918	0.984676
371.034035	0.983261
371.421090	0.980678
371.808081	0.977083
372.195010	0.976785
372.581875	0.972867
372.968678	0.969579
373.355418	0.965058
373.742096	0.959279
374.128710	0.956470
374.515262	0.950943
374.901751	0.948359
375.288177	0.942616
375.674540	0.936986
376.060841	0.930137
376.447079	0.924938
376.833254	0.919099
377.219367	0.912481
377.605417	0.902220
377.991404	0.898006
378.377329	0.890730
378.763191	0.884887
379.148991	0.877180
379.534727	0.867845
379.920402	0.859609
380.306013	0.854666
380.691563	0.841411
381.077049	0.833603
381.462474	0.829393
381.847835	0.819775
382.233134	0.811238
382.618371	0.809844
383.003545	0.793543
383.388657	0.790290
383.773706	0.782876
384.158693	0.777456
384.543618	0.769236
384.928480	0.760303
385.313280	0.749785
385.698017	0.749616
386.082692	0.738141
386.467305	0.735004
386.851856	0.727613
387.236344	0.722601
387.620770	0.715072
388.005133	0.710591
388.389435	0.705716
388.773674	0.702269
389.157851	0.694815
389.541965	0.690427
389.926018	0.697074
390.310008	0.684097
390.693936	0.679425
391.077802	0.672299
391.461606	0.674404
391.845348	0.662886
392.229027	0.663830
392.612645	0.660797
392.996200	0.648417
393.379694	0.641096
393.763125	0.631438
394.146494	0.635894
394.529801	0.626072
394.913047	0.618404
395.296230	0.624053
395.679351	0.615777
396.062410	0.611360
396.445408	0.615211
396.828343	0.609961
397.211217	0.605273
397.594028	0.617578
397.976778	0.607183
398.359466	0.604153
398.742092	0.599126
399.124656	0.611510
399.507158	0.600734
399.889598	0.597316
400.271977	0.588341
400.654294	0.592222
401.036549	0.591565
401.418742	0.595237
401.800874	0.580905
402.182944	0.578206
402.564952	0.569761
402.946898	0.572582
403.328783	0.571782
403.710606	0.583785
404.092367	0.558953
404.474067	0.563568
404.855705	0.561758
405.237282	0.572144
405.618797	0.557854
406.000250	0.553378
406.381642	0.544038
406.762972	0.547789
407.144240	0.547391
407.525447	0.547336
407.906593	0.540737
408.287677	0.535687
408.668700	0.543852
409.049661	0.537746
409.430560	0.533367
409.811399	0.541069
410.192176	0.523556
410.572891	0.530319
410.953545	0.518732
411.334138	0.531983
411.714669	0.524598
412.095139	0.536169
412.475547	0.521042
412.855894	0.523174
413.236180	0.522363
413.616405	0.527422
413.996568	0.517845
414.376670	0.523967
414.756711	0.528684
415.136691	0.525792
415.516609	0.516977
415.896466	0.512884
416.276262	0.509309
416.655997	0.511151
417.035670	0.492886
417.415283	0.484255
417.794834	0.489667
418.174324	0.494337
418.553753	0.504424
418.933121	0.486037
419.312428	0.479801
419.691674	0.485024
420.070859	0.474425
420.449983	0.481977
420.829045	0.471954
421.208047	0.480637
421.586988	0.474445
421.965867	0.472920
422.344686	0.461381
422.723444	0.474057
423.102141	0.490110
423.480777	0.464221
423.859352	0.483620
424.237866	0.460884
424.616319	0.462069
424.994712	0.452744
425.373044	0.463423
425.751314	0.451471
426.129524	0.468021
426.507673	0.451930
426.885762	0.445250
427.263789	0.450426
427.641756	0.460394
428.019662	0.450560
428.397508	0.449787
428.775292	0.453631
429.153016	0.446046
429.530679	0.452818
429.908282	0.445600
430.285824	0.455178
430.663305	0.433852
431.040726	0.454596
431.418086	0.455325
431.795385	0.447137
432.172624	0.445020
432.549802	0.446378
432.926920	0.445248
433.303977	0.444021
433.680974	0.441403
434.057910	0.440686
434.434786	0.439563
434.811601	0.442043
435.188355	0.424182
435.565050	0.433816
435.941683	0.435547
436.318257	0.419879
436.694770	0.419778
437.071222	0.418030
437.447614	0.422722
437.823946	0.429145
438.200218	0.418479
438.576429	0.427863
438.952580	0.420689
439.328670	0.417901
439.704700	0.424592
440.080670	0.426118
440.456580	0.407064
440.832429	0.414686
441.208218	0.426083
441.583947	0.415101
441.959616	0.414929
442.335224	0.419686
442.710773	0.410411
443.086261	0.407978
443.461689	0.422373
443.837057	0.412007
444.212365	0.401955
444.587612	0.408776
444.962800	0.399163
445.337927	0.400506
445.712995	0.426857
446.088002	0.388831
446.462949	0.399432
446.837837	0.404096
447.212664	0.392976
447.587431	0.384643
447.962139	0.355371
448.336786	0.314647
448.711374	0.324667
449.085901	0.368927
449.460369	0.373236
449.834776	0.376793
450.209124	0.356048
450.583412	0.348520
450.957640	0.341982
451.331808	0.352714
451.705917	0.376549
452.079965	0.380936
452.453954	0.369181
452.827883	0.376004
453.201752	0.370855
453.575562	0.382036
453.949311	0.370560
454.323001	0.376710
454.696632	0.372419
455.070202	0.365087
455.443713	0.356830
455.817164	0.351862
456.190556	0.347823
456.563888	0.343909
456.937160	0.342179
457.310373	0.359366
457.683526	0.357912
458.056619	0.363966
458.429653	0.364456
458.802628	0.367436
459.175542	0.362164
459.548398	0.344730
459.921194	0.337093
460.293930	0.337337
460.666607	0.314669
461.039224	0.302628
461.411782	0.298701
461.784280	0.297889
462.156719	0.302117
462.529099	0.306462
462.901419	0.322620
463.273680	0.326908
463.645882	0.326267
464.018024	0.332290
464.390106	0.325054
464.762130	0.309858
465.134094	0.293389
465.505999	0.262088
465.877845	0.232558
466.249631	0.219557
466.621358	0.227095
466.993026	0.240919
467.364634	0.246748
467.736184	0.255751
468.107674	0.264648
468.479105	0.263674
468.850477	0.270455
469.221790	0.277245
469.593043	0.287478
469.964238	0.292267
470.335373	0.291806
470.706449	0.289546
471.077467	0.290357
471.448425	0.252504
471.819324	0.228216
472.190164	0.227197
472.560945	0.256138
472.931667	0.278367
473.302330	0.282382
473.672934	0.294542
474.043479	0.282608
474.413965	0.284636
474.784393	0.288042
475.154761	0.283226
475.525070	0.280022
475.895321	0.285898
476.265513	0.279959
476.635645	0.275103
477.005719	0.275391
477.375734	0.272084
477.745691	0.265136
478.115588	0.261669
478.485427	0.255068
478.855207	0.242199
479.224928	0.224700
479.594591	0.212856
479.964194	0.216312
480.333739	0.217248
480.703226	0.218824
481.072653	0.217226
481.442022	0.213161
481.811333	0.209545
482.180584	0.212951
482.549777	0.218420
482.918912	0.221785
483.287988	0.221201
483.657005	0.220955
484.025964	0.227236
484.394864	0.224479
484.763706	0.225585
485.132489	0.230262
485.501213	0.231291
485.869879	0.229663
486.238487	0.232951
486.607036	0.230516
486.975527	0.235050
487.343959	0.230992
487.712333	0.229975
488.080648	0.231409
488.448905	0.230918
488.817104	0.232217
489.185244	0.226521
489.553326	0.223365
489.921350	0.213183
490.289315	0.195836
490.657222	0.190697
491.025070	0.192095
491.392861	0.194017
491.760593	0.199975
492.128267	0.205208
492.495883	0.211132
492.863440	0.217411
493.230939	0.223552
493.598380	0.224938
493.965763	0.226958
494.333088	0.229239
494.700354	0.230814
495.067563	0.229623
495.434713	0.233178
495.801805	0.230795
496.168839	0.232507
496.535815	0.233423
496.902733	0.233736
497.269593	0.235152
497.636395	0.233153
498.003139	0.233595
498.369825	0.236527
498.736453	0.232643
499.103023	0.234339
499.469535	0.233815
499.835989	0.233856
500.202385	0.234832
500.568723	0.238364
500.935003	0.233289
501.301226	0.237577
501.667390	0.231911
502.033497	0.230330
502.399546	0.233004
502.765537	0.234866
503.131470	0.233353
503.497345	0.229535
503.863163	0.238213
504.228923	0.231405
504.594625	0.229944
504.960269	0.235527
505.325856	0.230724
505.691385	0.234655
506.056856	0.231826
506.422270	0.231153
506.787625	0.233620
507.152924	0.231091
507.518164	0.231581
507.883347	0.233132
508.248472	0.234759
508.613540	0.229989
508.978550	0.232410
509.343503	0.232839
509.708398	0.230412
510.073236	0.228110
510.438016	0.228261
510.802738	0.228932
511.167403	0.228012
511.532010	0.230192
511.896561	0.225593
512.261053	0.224311
512.625488	0.226197
512.989866	0.226583
513.354186	0.226824
513.718449	0.228931
514.082655	0.225194
514.446803	0.227336
514.810894	0.225018
515.174927	0.227520
515.538904	0.227062
515.902822	0.224044
516.266684	0.226474
516.630488	0.227425
516.994235	0.226132
517.357925	0.224995
517.721558	0.223490
518.085133	0.222694
518.448651	0.222982
518.812112	0.224964
519.175516	0.224845
519.538863	0.222751
519.902152	0.224117
520.265385	0.221175
520.628560	0.222520
520.991678	0.223172
521.354739	0.222008
521.717743	0.223423
522.080690	0.223933
522.443580	0.221118
522.806413	0.222001
523.169189	0.221029
523.531908	0.220171
523.894569	0.223770
524.257174	0.223776
524.619722	0.221340
524.982213	0.222589
525.344647	0.221349
525.707025	0.222530
526.069345	0.220311
526.431608	0.222118
526.793815	0.219979
527.155964	0.224288
527.518057	0.223045
527.880093	0.224177
528.242072	0.222675
528.603995	0.224601
528.965860	0.226199
529.327669	0.224917
529.689421	0.226124
530.051117	0.226854
530.412755	0.224399
530.774337	0.227009
531.135862	0.227252
531.497331	0.226590
531.858743	0.229115
532.220098	0.226315
532.581396	0.228604
532.942638	0.229108
533.303824	0.230134
533.664953	0.230029
534.026025	0.231671
534.387040	0.229353
534.747999	0.229610
535.108902	0.228318
535.469748	0.233326
535.830537	0.231355
536.191270	0.231842
536.551947	0.231155
536.912567	0.231216
537.273131	0.232972
537.633638	0.233238
537.994089	0.233611
538.354483	0.234467
538.714821	0.231511
539.075103	0.231498
539.435328	0.232148
539.795497	0.235803
540.155609	0.232530
540.515665	0.230544
540.875665	0.236449
541.235609	0.234757
541.595496	0.234852
541.955328	0.231147
542.315102	0.234043
542.674821	0.235132
543.034483	0.235068
543.394090	0.234568
543.753640	0.236686
544.113134	0.231690
544.472571	0.234970
544.831953	0.231827
545.191278	0.235823
545.550548	0.235530
545.909761	0.232060
546.268918	0.232942
546.628019	0.231207
546.987064	0.234206
547.346053	0.235840
547.704986	0.233746
548.063863	0.233789
548.422684	0.234117
548.781449	0.235940
549.140158	0.233564
549.498811	0.236829
549.857408	0.239399
550.215949	0.234369
550.574434	0.237452
550.932864	0.235410
551.291237	0.233914
551.649555	0.235489
552.007817	0.235275
552.366022	0.235882
552.724173	0.236290
553.082267	0.236366
553.440305	0.233488
553.798288	0.237823
554.156215	0.234413
554.514086	0.235042
554.871902	0.238263
555.229661	0.237665
555.587365	0.238047
555.945014	0.240651
556.302606	0.237665
556.660143	0.240093
557.017625	0.236547
557.375050	0.238810
557.732421	0.235567
558.089735	0.237736
558.446994	0.238071
558.804197	0.237141
559.161345	0.236800
559.518437	0.240336
559.875474	0.238093
560.232455	0.237487
560.589381	0.238591
560.946251	0.238761
561.303065	0.236492
561.659825	0.237764
562.016528	0.239270
562.373177	0.242186
562.729770	0.239556
563.086307	0.241523
563.442789	0.239339
563.799216	0.242473
564.155587	0.241077
564.511904	0.241785
564.868164	0.242206
565.224370	0.242048
565.580520	0.243804
565.936615	0.243556
566.292654	0.246725
566.648638	0.243891
567.004567	0.244402
567.360441	0.244960
567.716260	0.247094
568.072023	0.244931
568.427732	0.245480
568.783385	0.248231
569.138982	0.246302
569.494525	0.245648
569.850013	0.248566
570.205445	0.247072
570.560823	0.249551
570.916145	0.251733
571.271412	0.249657
571.626625	0.251268
571.981782	0.252130
572.336884	0.252832
572.691931	0.252101
573.046923	0.253655
573.401860	0.254495
573.756743	0.256506
574.111570	0.255384
574.466342	0.256040
574.821059	0.255168
575.175722	0.257755
575.530330	0.257978
575.884882	0.257666
576.239380	0.260002
576.593823	0.260461
576.948211	0.259854
577.302544	0.263183
577.656823	0.262920
578.011047	0.262742
578.365216	0.263690
578.719330	0.265532
579.073389	0.265409
579.427394	0.266886
579.781344	0.267407
580.135239	0.269068
580.489080	0.268391
580.842866	0.271348
581.196597	0.271261
581.550273	0.270006
581.903895	0.271284
582.257463	0.269325
582.610975	0.272665
582.964434	0.271734
583.317837	0.274522
583.671186	0.274812
584.024481	0.274860
584.377721	0.277197
584.730906	0.278122
585.084037	0.277260
585.437113	0.278954
585.790135	0.278691
586.143103	0.281358
586.496016	0.282705
586.848874	0.280082
587.201679	0.280651
587.554428	0.284133
587.907124	0.282669
588.259765	0.283337
588.612352	0.283904
588.964884	0.287832
589.317362	0.287162
589.669786	0.287611
590.022155	0.286017
590.374470	0.285230
590.726731	0.287005
591.078937	0.291864
591.431090	0.288095
591.783188	0.292600
592.135232	0.292917
592.487222	0.292959
592.839157	0.290875
593.191038	0.293479
593.542866	0.295285
593.894639	0.298942
594.246358	0.296876
594.598022	0.296155
594.949633	0.300203
595.301190	0.300818
595.652692	0.300169
596.004141	0.296165
596.355535	0.304145
596.706876	0.304626
597.058162	0.306876
597.409395	0.304299
597.760573	0.302075
598.111698	0.305152
598.462768	0.305677
598.813785	0.306671
599.164748	0.308138
599.515657	0.308571
599.866511	0.312078
600.217312	0.307169
600.568060	0.312733
600.918753	0.308807
601.269392	0.310031
601.619978	0.312834
601.970510	0.310830
602.320988	0.310998
602.671412	0.308627
603.021783	0.311044
603.372100	0.312595
603.722363	0.311975
604.072572	0.312723
604.422728	0.312555
604.772830	0.314859
605.122878	0.314331
605.472872	0.314798
605.822813	0.313168
606.172701	0.316183
606.522534	0.313477
606.872314	0.313180
607.222041	0.314195
607.571714	0.312609
607.921333	0.313759
608.270899	0.313598
608.620411	0.310246
608.969870	0.314409
609.319276	0.314255
609.668627	0.314345
610.017926	0.312702
610.367171	0.311273
610.716362	0.312186
611.065500	0.312316
611.414585	0.311303
611.763616	0.311359
612.112594	0.311976
612.461518	0.311523
612.810389	0.309092
613.159207	0.311736
613.507971	0.313298
613.856682	0.308961
614.205340	0.310832
614.553945	0.307383
614.902496	0.311285
615.250994	0.309418
615.599439	0.309993
615.947830	0.309505
616.296169	0.310714
616.644454	0.309665
616.992686	0.309965
617.340864	0.307735
617.688990	0.311371
618.037063	0.307919
618.385082	0.309839
618.733048	0.306985
619.080961	0.309086
619.428821	0.308521
619.776628	0.307998
620.124382	0.310049
620.472083	0.310655
620.819731	0.309858
621.167326	0.313467
621.514868	0.313107
621.862357	0.317770
622.209793	0.317087
622.557176	0.319363
622.904506	0.320635
623.251783	0.322901
623.599007	0.325356
623.946179	0.324667
624.293297	0.326647
624.640363	0.330287
624.987376	0.331070
625.334336	0.333380
625.681243	0.336177
626.028097	0.336560
626.374899	0.337548
626.721647	0.337938
627.068343	0.341007
627.414987	0.341964
627.761577	0.344364
628.108115	0.342582
628.454600	0.347946
628.801032	0.345027
629.147412	0.347376
629.493739	0.347489
629.840014	0.350780
630.186236	0.348367
630.532405	0.353741
630.878521	0.351320
631.224585	0.353055
631.570597	0.357046
631.916556	0.355472
632.262462	0.355743
632.608316	0.357641
632.954117	0.358467
633.299866	0.359277
633.645562	0.359180
633.991206	0.363367
634.336797	0.367186
634.682336	0.369193
635.027823	0.370838
635.373257	0.371803
635.718639	0.374948
636.063968	0.374227
636.409245	0.380183
636.754470	0.380181
637.099642	0.382644
637.444762	0.385796
637.789829	0.384869
638.134845	0.388602
638.479808	0.389839
638.824719	0.389562
639.169577	0.393980
639.514383	0.392294
639.859137	0.396599
640.203839	0.396207
640.548489	0.396904
640.893086	0.398707
641.237632	0.400039
641.582125	0.398688
641.926566	0.399882
642.270955	0.399995
642.615292	0.400802
642.959576	0.399903
643.303809	0.400221
643.647990	0.399690
643.992118	0.399720
644.336195	0.404060
644.680219	0.401825
645.024192	0.402879
645.368112	0.396311
645.711981	0.395934
646.055797	0.390539
646.399562	0.393304
646.743274	0.385472
647.086935	0.382954
647.430544	0.383170
647.774101	0.381485
648.117606	0.381558
648.461059	0.382005
648.804460	0.384244
649.147810	0.389438
649.491108	0.391347
649.834354	0.392954
650.177548	0.397790
650.520690	0.403682
650.863781	0.404539
651.206820	0.403839
651.549807	0.408529
651.892742	0.412249
652.235626	0.411681
652.578458	0.412857
652.921238	0.419455
653.263967	0.417046
653.606644	0.420957
653.949269	0.420613
654.291843	0.424515
654.634365	0.421392
654.976836	0.423987
655.319255	0.424520
655.661622	0.426037
656.003938	0.426100
656.346203	0.429008
656.688416	0.427404
657.030577	0.430478
657.372687	0.432585
657.714746	0.433404
658.056753	0.430374
658.398708	0.433917
658.740612	0.435190
659.082465	0.431355
659.424266	0.432358
659.766016	0.431736
660.107715	0.434071
660.449362	0.433138
660.790958	0.433496
661.132503	0.433851
661.473996	0.431552
661.815438	0.432020
662.156829	0.433265
662.498168	0.433733
662.839456	0.434944
663.180693	0.432768
663.521879	0.432966
663.863013	0.433610
664.204097	0.432332
664.545129	0.428564
664.886110	0.429317
665.227040	0.426836
665.567918	0.429935
665.908746	0.427410
666.249522	0.427327
666.590248	0.427685
666.930922	0.426365
667.271545	0.425345
667.612118	0.425155
667.952639	0.426871
668.293109	0.425458
668.633528	0.428333
668.973896	0.428262
669.314213	0.428821
669.654480	0.431047
669.994695	0.430606
670.334859	0.431723
670.674973	0.431235
671.015035	0.431496
671.355047	0.431708
671.695008	0.432197
672.034918	0.434858
672.374777	0.433800
672.714585	0.434995
673.054342	0.434854
673.394049	0.435244
673.733705	0.432468
674.073310	0.434286
674.412864	0.436685
674.752368	0.437640
675.091820	0.438317
675.431223	0.442367
675.770574	0.442202
676.109875	0.444909
676.449125	0.444985
676.788324	0.447351
677.127473	0.452863
677.466571	0.452242
677.805619	0.454124
678.144616	0.454925
678.483562	0.456727
678.822458	0.460264
679.161303	0.461155
679.500098	0.460723
679.838842	0.462541
680.177535	0.461772
680.516179	0.460823
680.854771	0.459719
681.193314	0.452977
681.531805	0.444548
681.870247	0.432709
682.208638	0.425176
682.546978	0.424506
682.885268	0.426208
683.223508	0.432648
683.561697	0.435762
683.899836	0.438781
684.237925	0.442180
684.575963	0.444626
684.913951	0.447381
685.251889	0.443836
685.589776	0.445544
685.927614	0.447783
686.265401	0.442426
686.603137	0.443424
686.940824	0.437313
687.278460	0.436026
687.616046	0.435150
687.953582	0.430043
688.291068	0.431564
688.628504	0.427251
688.965889	0.429109
689.303224	0.434054
689.640510	0.437529
689.977745	0.443176
690.314930	0.450912
690.652065	0.455352
690.989150	0.463207
691.326185	0.469663
691.663170	0.474552
692.000105	0.481439
692.336990	0.488316
692.673825	0.490966
693.010610	0.497784
693.347345	0.503317
693.684030	0.504503
694.020665	0.509940
694.357251	0.519283
694.693786	0.518419
695.030272	0.522652
695.366707	0.526262
695.703093	0.529646
696.039429	0.527096
696.375716	0.528567
696.711952	0.531505
697.048139	0.533626
697.384276	0.535351
697.720363	0.533812
698.056400	0.532301
698.392388	0.538003
698.728326	0.541524
699.064214	0.544219
699.400053	0.544690
699.735842	0.548048
700.071581	0.550914
700.407270	0.553895
700.742910	0.557123
701.078501	0.563460
701.414042	0.563319
701.749533	0.566566
702.084974	0.575620
702.420366	0.567786
702.755709	0.575541
703.091002	0.583295
703.426246	0.577058
703.761440	0.582144
704.096584	0.587369
704.431679	0.584139
704.766725	0.585991
705.101721	0.588149
705.436668	0.583541
705.771565	0.591457
706.106413	0.587763
706.441212	0.582459
706.775961	0.582081
707.110661	0.584676
707.445311	0.581845
707.779913	0.578576
708.114465	0.577220
708.448967	0.573347
708.783421	0.565648
709.117825	0.560137
709.452180	0.560301
709.786485	0.553882
710.120742	0.544011
710.454949	0.545604
710.789107	0.538171
711.123216	0.529089
711.457275	0.530755
711.791286	0.521507
712.125247	0.519608
712.459159	0.530458
712.793023	0.523401
713.126837	0.528345
713.460602	0.528284
713.794318	0.537962
714.127985	0.536365
714.461602	0.546693
714.795171	0.549776
715.128691	0.557491
715.462162	0.564836
715.795584	0.570382
716.128957	0.573922
716.462281	0.580293
716.795556	0.583360
717.128782	0.588552
717.461960	0.598137
717.795088	0.596596
718.128167	0.602771
718.461198	0.611593
718.794180	0.612695
719.127113	0.615071
719.459997	0.618697
719.792833	0.624540
720.125619	0.626793
720.458357	0.631740
720.791046	0.631702
721.123686	0.635249
721.456278	0.642536
721.788821	0.639268
722.121315	0.643319
722.453761	0.647829
722.786158	0.646035
723.118506	0.642278
723.450805	0.649785
723.783056	0.645787
724.115259	0.643006
724.447412	0.643281
724.779518	0.643577
725.111574	0.643276
725.443582	0.638230
725.775542	0.640757
726.107453	0.633206
726.439315	0.632149
726.771129	0.630948
727.102895	0.625210
727.434612	0.616881
727.766281	0.615532
728.097901	0.614814
728.429473	0.614284
728.760996	0.612752
729.092471	0.611995
729.423897	0.616729
729.755276	0.616406
730.086606	0.615792
730.417887	0.610334
730.749120	0.600855
731.080305	0.591551
731.411442	0.587742
731.742530	0.593036
732.073570	0.591788
732.404562	0.584153
732.735506	0.585406
733.066401	0.590119
733.397249	0.599742
733.728048	0.611241
734.058798	0.623366
734.389501	0.633904
734.720156	0.643724
735.050762	0.652098
735.381320	0.653189
735.711831	0.662716
736.042293	0.667421
736.372707	0.662715
736.703073	0.667215
737.033391	0.669274
737.363661	0.667172
737.693883	0.661769
738.024056	0.660959
738.354182	0.661850
738.684260	0.649898
739.014290	0.646723
739.344272	0.646958
739.674207	0.640569
740.004093	0.640417
740.333931	0.640617
740.663722	0.640851
740.993464	0.641258
741.323159	0.645096
741.652806	0.650129
741.982405	0.654699
742.311956	0.660215
742.641460	0.662271
742.970915	0.665363
743.300323	0.673583
743.629683	0.680421
743.958996	0.681000
744.288260	0.685731
744.617477	0.692461
744.946647	0.693297
745.275768	0.698696
745.604842	0.698565
745.933869	0.708296
746.262847	0.708817
746.591778	0.703071
746.920662	0.708810
747.249498	0.715019
747.578286	0.706414
747.907027	0.702357
748.235720	0.703863
748.564365	0.698813
748.892963	0.697956
749.221514	0.700599
749.550017	0.705840
749.878473	0.705160
750.206881	0.712426
750.535242	0.713121
750.863555	0.713385
751.191821	0.714675
751.520039	0.717919
751.848210	0.722182
752.176334	0.715059
752.504411	0.714661
752.832440	0.721969
753.160421	0.725775
753.488356	0.724205
753.816243	0.722209
754.144082	0.730438
754.471875	0.733905
754.799620	0.729072
755.127318	0.730640
755.454969	0.731017
755.782572	0.729508
756.110129	0.734787
756.437638	0.737251
756.765100	0.733062
757.092515	0.732005
757.419882	0.730097
757.747203	0.735972
758.074477	0.735022
758.401703	0.732493
758.728882	0.727958
759.056014	0.725971
759.383099	0.725140
759.710138	0.726450
760.037129	0.723206
760.364073	0.716761
760.690970	0.719891
761.017820	0.725893
761.344623	0.719718
761.671379	0.712127
761.998088	0.699672
762.324751	0.676660
762.651366	0.635831
762.977935	0.567522
763.304456	0.515048
763.630931	0.505560
763.957359	0.545223
764.283740	0.589985
764.610074	0.617191
764.936362	0.648118
765.262602	0.674936
765.588796	0.696846
765.914943	0.714643
766.241044	0.732688
766.567097	0.739424
766.893104	0.749051
767.219064	0.755816
767.544978	0.762533
767.870845	0.775274
768.196665	0.779194
768.522438	0.776798
768.848165	0.778164
769.173846	0.787841
769.499479	0.792364
769.825066	0.795467
770.150607	0.800808
770.476101	0.795632
770.801548	0.797493
771.126949	0.808780
771.452303	0.811748
771.777611	0.810867
772.102872	0.810220
772.428087	0.815286
772.753256	0.819946
773.078378	0.820988
773.403453	0.829733
773.728482	0.834663
774.053465	0.828309
774.378401	0.831980
774.703291	0.839656
775.028135	0.839454
775.352932	0.842426
775.677683	0.844495
776.002388	0.844944
776.327046	0.843262
776.651658	0.847315
776.976224	0.851331
777.300743	0.851844
777.625216	0.853755
777.949643	0.855730
778.274024	0.854478
778.598359	0.857099
778.922647	0.855342
779.246889	0.856290
779.571086	0.859720
779.895236	0.862786
780.219339	0.859477
780.543397	0.856427
780.867409	0.854887
781.191374	0.858006
781.515294	0.858583
781.839167	0.857698
782.162995	0.859687
782.486776	0.857345
782.810511	0.858299
783.134201	0.863250
783.457844	0.859606
783.781441	0.863764
784.104993	0.869026
784.428498	0.868985
784.751958	0.864863
785.075372	0.866795
785.398739	0.870657
785.722061	0.867810
786.045337	0.863157
786.368568	0.868120
786.691752	0.869503
787.014891	0.855057
787.337983	0.847438
787.661030	0.839721
787.984031	0.822160
788.306987	0.808396
788.629897	0.810726
788.952760	0.814216
789.275579	0.819087
789.598351	0.834369
789.921078	0.847019
790.243759	0.849894
790.566395	0.854735
790.888984	0.862045
791.211529	0.867088
791.534027	0.870430
791.856480	0.872665
792.178888	0.876142
792.501249	0.880083
792.823566	0.881917
793.145836	0.882287
793.468062	0.882535
793.790241	0.883047
794.112375	0.881052
794.434464	0.876221
794.756507	0.876196
795.078505	0.875572
795.400457	0.870343
795.722364	0.858119
796.044226	0.850766
796.366042	0.850980
796.687812	0.853467
797.009538	0.849804
797.331218	0.851884
797.652852	0.857476
797.974442	0.863386
798.295986	0.862134
798.617484	0.865966
798.938938	0.869440
799.260346	0.874542
799.581709	0.874946
799.903026	0.879106
800.224299	0.878611
800.545526	0.882551
800.866708	0.887394
801.187845	0.890859
801.508936	0.889718
801.829983	0.888859
802.150984	0.891777
802.471940	0.896382
802.792851	0.894866
803.113717	0.897451
803.434538	0.894312
803.755314	0.897487
804.076045	0.898633
804.396731	0.898339
804.717372	0.899472
805.037967	0.900324
805.358518	0.898307
805.679024	0.895674
805.999485	0.894437
806.319901	0.895397
806.640272	0.896813
806.960598	0.895461
807.280879	0.892225
807.601115	0.890709
807.921306	0.894247
808.241453	0.895111
808.561554	0.891554
808.881611	0.892994
809.201623	0.894547
809.521590	0.894670
809.841513	0.896147
810.161390	0.894827
810.481223	0.896978
810.801011	0.899342
811.120755	0.900969
811.440453	0.899931
811.760107	0.899102
812.079716	0.898406
812.399281	0.902491
812.718801	0.905063
813.038276	0.906328
813.357707	0.904911
813.677093	0.901961
813.996434	0.905580
814.315731	0.907349
814.634983	0.908008
814.954191	0.906771
815.273354	0.904115
815.592473	0.900383
815.911547	0.901004
816.230577	0.898470
816.549562	0.893669
816.868502	0.895360
817.187399	0.892538
817.506250	0.886298
817.825058	0.889151
818.143821	0.884728
818.462539	0.879141
818.781213	0.870940
819.099843	0.859703
819.418429	0.844239
819.736970	0.826449
820.055466	0.807383
820.373919	0.780921
820.692327	0.748021
821.010691	0.712816
821.329011	0.633882
821.647286	0.516872
821.965517	0.402444
822.283704	0.358513
822.601847	0.359273
822.919945	0.395401
823.237999	0.430061
823.556010	0.477578
823.873976	0.533948
824.191897	0.585312
824.509775	0.628385
824.827609	0.673815
825.145398	0.697161
825.463144	0.700484
825.780845	0.682782
826.098502	0.664291
826.416116	0.617557
826.733685	0.572746
827.051210	0.563605
827.368692	0.578545
827.686129	0.617193
828.003522	0.670854
828.320872	0.718244
828.638177	0.762684
828.955439	0.795845
829.272656	0.818124
829.589830	0.835346
829.906960	0.853449
830.224046	0.863980
830.541088	0.875204
830.858086	0.878922
831.175041	0.885264
831.491952	0.885134
831.808819	0.882504
832.125642	0.874794
832.442421	0.858422
832.759157	0.837563
833.075849	0.790524
833.392497	0.726310
833.709101	0.684640
834.025662	0.694594
834.342179	0.726381
834.658653	0.766418
834.975083	0.802237
835.291469	0.828705
835.607811	0.852186
835.924110	0.867258
836.240366	0.885011
836.556578	0.900211
836.872746	0.906930
837.188871	0.913561
837.504952	0.918778
837.820990	0.922666
838.136984	0.925783
838.452935	0.928328
838.768842	0.930298
839.084706	0.923025
839.400526	0.897186
839.716303	0.856825
840.032037	0.833376
840.347727	0.837174
840.663373	0.855331
840.978977	0.877419
841.294537	0.900939
841.610054	0.916973
841.925527	0.925203
842.240957	0.931932
842.556344	0.938352
842.871687	0.944664
843.186987	0.948814
843.502244	0.949018
843.817458	0.951986
844.132629	0.954057
844.447756	0.959232
844.762840	0.959198
845.077881	0.957743
845.392879	0.957915
845.707833	0.963002
846.022745	0.963787
846.337613	0.964311
846.652438	0.965360
846.967221	0.964220
847.281960	0.963908
847.596656	0.966565
847.911309	0.965210
848.225919	0.966988
848.540485	0.967142
848.855009	0.968747
849.169490	0.966859
849.483928	0.968414
849.798323	0.968051
850.112675	0.969221
850.426984	0.968900
850.741251	0.968856
851.055474	0.969537
851.369654	0.967026
851.683792	0.968392
851.997887	0.969749
852.311938	0.969933
852.625947	0.968351
852.939914	0.966534
853.253837	0.968522
853.567718	0.969557
853.881555	0.969214
854.195350	0.967482
854.509103	0.969339
854.822812	0.968602
855.136479	0.969153
855.450103	0.969730
855.763685	0.967288
856.077224	0.968269
856.390720	0.970439
856.704173	0.970468
857.017584	0.967423
857.330953	0.966115
857.644278	0.967641
857.957561	0.966999
858.270802	0.967610
858.584000	0.966477
858.897155	0.966461
859.210268	0.966308
859.523339	0.968119
859.836367	0.968811
860.149352	0.970182
860.462295	0.968055
860.775195	0.968170
861.088054	0.968665
861.400869	0.968601
861.713642	0.969378
862.026373	0.968777
862.339062	0.970409
862.651708	0.966716
862.964312	0.967194
863.276873	0.967846
863.589392	0.967816
863.901869	0.965069
864.214303	0.965349
864.526696	0.963468
864.839045	0.961764
865.151353	0.961037
865.463619	0.961843
865.775842	0.961857
866.088023	0.961618
866.400162	0.961234
866.712258	0.962200
867.024313	0.960865
867.336325	0.963383
867.648296	0.961786
867.960224	0.961665
868.272110	0.960819
868.583954	0.962906
868.895755	0.962436
869.207515	0.960187
869.519233	0.958526
869.830909	0.960509
870.142542	0.960709
870.454134	0.960617
870.765684	0.960127
871.077191	0.956672
871.388657	0.958380
871.700081	0.956729
872.011463	0.955886
872.322803	0.957077
872.634101	0.956114
872.945357	0.953059
873.256571	0.952821
873.567744	0.952003
873.878874	0.951981
874.189963	0.950895
874.501010	0.950457
874.812015	0.949766
875.122979	0.949461
875.433900	0.952586
875.744780	0.952399
876.055618	0.949866
876.366415	0.948225
876.677169	0.948029
876.987882	0.949815
877.298554	0.950298
877.609183	0.946722
877.919771	0.943719
878.230317	0.941661
878.540822	0.939869
878.851285	0.933513
879.161707	0.924795
879.472087	0.912469
879.782425	0.895806
880.092722	0.860871
880.402977	0.807662
880.713191	0.744655
881.023363	0.684555
881.333494	0.649424
881.643583	0.621353
881.953631	0.621493
882.263637	0.650767
882.573602	0.689357
882.883526	0.717120
883.193408	0.741171
883.503248	0.764541
883.813048	0.793129
884.122806	0.823154
884.432522	0.845511
884.742197	0.867365
885.051831	0.877715
885.361424	0.887636
885.670975	0.900077
885.980485	0.911168
886.289954	0.916354
886.599382	0.922343
886.908768	0.926988
887.218113	0.932667
887.527417	0.936030
887.836680	0.939882
888.145901	0.942601
888.455082	0.943743
888.764221	0.948334
889.073319	0.951393
889.382376	0.951395
889.691392	0.951915
890.000366	0.951926
890.309300	0.951479
890.618193	0.950657
890.927044	0.949157
891.235855	0.950164
891.544625	0.950061
891.853353	0.950371
892.162041	0.947646
892.470687	0.941783
892.779293	0.936307
893.087858	0.931204
893.396381	0.924859
893.704864	0.910193
894.013306	0.885862
894.321707	0.858845
894.630068	0.842852
894.938387	0.838613
895.246665	0.839035
895.554903	0.852398
895.863100	0.866261
896.171256	0.883745
896.479371	0.902965
896.787446	0.916394
897.095480	0.922566
897.403473	0.925944
897.711425	0.930123
898.019336	0.938892
898.327207	0.939980
898.635038	0.943732
898.942827	0.943290
899.250576	0.947114
899.558284	0.950365
899.865952	0.951505
900.173579	0.953722
900.481165	0.954029
900.788711	0.958083
901.096216	0.960310
901.403681	0.959953
901.711105	0.961545
902.018489	0.962874
902.325832	0.960797
902.633135	0.960878
902.940397	0.954394
903.247619	0.941447
903.554800	0.916539
903.861941	0.874966
904.169041	0.838357
904.476101	0.818882
904.783121	0.820722
905.090100	0.837373
905.397039	0.858648
905.703938	0.881888
906.010796	0.903508
906.317614	0.920541
906.624391	0.932425
906.931129	0.941314
907.237826	0.949651
907.544483	0.957436
907.851099	0.960537
908.157675	0.967096
908.464211	0.968340
908.770707	0.970479
909.077163	0.973028
909.383578	0.974180
909.689954	0.974471
909.996289	0.974778
910.302584	0.977130
910.608839	0.977675
910.915054	0.977260
911.221229	0.977549
911.527363	0.976869
911.833458	0.976007
912.139513	0.976758
912.445527	0.974212
912.751502	0.973430
913.057436	0.971183
913.363331	0.969274
913.669186	0.965150
913.975000	0.959490
914.280775	0.954171
914.586510	0.944628
914.892205	0.931996
915.197859	0.911074
915.503475	0.882193
915.809050	0.863102
916.114585	0.855511
916.420081	0.852356
916.725536	0.849798
917.030952	0.858800
917.336328	0.871289
917.641665	0.887713
917.946961	0.902854
918.252218	0.914572
918.557435	0.924922
918.862612	0.933334
919.167750	0.939833
919.472848	0.943967
919.777906	0.950713
920.082925	0.956202
920.387904	0.960106
920.692843	0.960631
920.997743	0.961912
921.302603	0.966464
921.607423	0.968500
921.912204	0.969324
922.216946	0.971027
922.521647	0.972559
922.826310	0.973179
923.130932	0.975156
923.435516	0.977481
923.740059	0.978694
924.044564	0.977975
924.349028	0.978977
924.653454	0.981916
924.957840	0.983918
925.262186	0.983366
925.566493	0.982977
925.870761	0.984355
926.174989	0.985667
926.479178	0.987900
926.783328	0.987377
927.087438	0.988251
927.391509	0.986932
927.695541	0.988416
927.999533	0.989496
928.303486	0.989028
928.607400	0.992296
928.911275	0.988199
929.215110	0.990499
929.518906	0.990824
929.822663	0.990330
930.126381	0.989468
930.430060	0.990048
930.733699	0.989762
931.037299	0.988870
931.340861	0.989680
931.644383	0.988314
931.947866	0.989475
932.251309	0.989769
932.554714	0.989368
932.858080	0.989527
933.161407	0.989248
933.464694	0.989932
933.767943	0.988985
934.071153	0.990265
934.374323	0.992142
934.677455	0.990517
934.980548	0.991251
935.283602	0.990382
935.586617	0.990497
935.889593	0.991171
936.192530	0.989869
936.495428	0.989501
936.798287	0.989883
937.101108	0.989983
937.403890	0.987488
937.706632	0.987819
938.009336	0.987234
938.312002	0.985187
938.614628	0.983692
938.917216	0.982567
939.219765	0.980953
939.522275	0.981907
939.824747	0.982648
940.127179	0.982328
940.429573	0.983484
940.731929	0.982121
941.034246	0.983462
941.336524	0.984318
941.638763	0.985191
941.940964	0.984989
942.243126	0.986721
942.545250	0.986448
942.847335	0.987025
943.149381	0.987191
943.451389	0.987765
943.753359	0.987754
944.055290	0.989419
944.357182	0.989855
944.659036	0.988582
944.960851	0.988516
945.262628	0.988695
945.564367	0.989579
945.866067	0.988735
946.167729	0.989617
946.469352	0.989748
946.770937	0.988462
947.072484	0.991700
947.373992	0.989931
947.675462	0.989761
947.976893	0.988937
948.278286	0.990002
948.579641	0.991019
948.880958	0.989607
949.182236	0.991092
949.483476	0.990998
949.784678	0.989979
950.085841	0.990737
950.386967	0.989838
950.688054	0.991475
950.989103	0.990626
951.290114	0.988831
951.591087	0.990074
951.892021	0.989113
952.192917	0.988928
952.493776	0.988294
952.794596	0.987949
953.095378	0.986404
953.396122	0.987521
953.696828	0.987132
953.997496	0.989701
954.298126	0.989829
954.598718	0.989267
954.899272	0.990143
955.199788	0.989163
955.500266	0.990863
955.800706	0.992271
956.101108	0.992974
956.401472	0.992455
956.701798	0.994196
957.002087	0.992613
957.302337	0.992434
957.602550	0.994781
957.902724	0.995001
958.202861	0.994640
958.502960	0.994849
958.803022	0.993274
959.103045	0.995262
959.403031	0.995494
959.702979	0.994884
960.002889	0.995872
960.302762	0.993834
960.602596	0.995231
960.902393	0.993809
961.202153	0.997141
961.501875	0.996595
961.801559	0.996105
962.101205	0.996308
962.400814	0.995517
962.700385	0.996207
962.999918	0.995495
963.299414	0.995776
963.598873	0.995137
963.898293	0.996836
964.197677	0.996538
964.497022	0.997558
964.796331	0.998368
965.095601	0.996234
965.394835	0.996109
965.694030	0.995957
965.993189	0.996630
966.292309	0.996939
966.591393	0.997678
966.890439	0.997006
967.189447	0.996415
967.488419	0.997555
967.787353	0.996564
968.086249	0.996224
968.385108	0.996927
968.683930	0.996781
968.982714	0.996313
969.281462	0.997445
969.580172	0.996164
969.878844	0.995634
970.177480	0.996361
970.476078	0.997054
970.774639	0.996760
971.073162	0.997502
971.371649	0.995846
971.670098	0.996513
971.968510	0.997951
972.266885	0.995046
972.565223	0.995535
972.863524	0.995096
973.161788	0.996100
973.460014	0.997173
973.758204	0.995668
974.056356	0.997404
974.354471	0.994699
974.652550	0.994737
974.950591	0.996579
975.248595	0.995637
975.546563	0.996726
975.844493	0.997702
976.142386	0.996705
976.440243	0.997569
976.738062	0.997056
977.035845	0.997848
977.333590	0.996719
977.631299	0.997862
977.928971	0.996592
978.226606	0.996011
978.524204	0.996217
978.821765	0.998040
979.119290	0.996180
979.416777	0.995730
979.714228	0.996892
980.011642	0.996578
980.309020	0.997372
980.606360	0.997184
980.903664	0.998745
981.200931	0.996571
981.498162	0.994966
981.795356	0.995113
982.092513	0.993610
982.389633	0.993623
982.686717	0.990585
982.983764	0.991384
983.280775	0.989637
983.577749	0.989066
983.874686	0.992236
984.171587	0.991723
984.468451	0.994676
984.765279	0.994708
985.062070	0.994871
985.358824	0.995075
985.655543	0.995641
985.952224	0.995879
986.248869	0.996129
986.545478	0.997726
986.842050	0.998643
987.138586	0.995841
987.435086	0.996726
987.731549	0.997693
988.027975	0.996854
988.324366	0.997147
988.620719	0.996245
988.917037	0.996335
989.213318	0.998368
989.509563	0.998839
989.805772	0.997434
990.101944	0.998937
990.398080	0.996663
990.694180	0.997414
990.990244	0.996644
991.286271	0.997659
991.582262	0.997481
991.878217	0.998291
992.174136	0.998487
992.470019	0.998735
992.765865	0.997610
993.061676	0.997600
993.357450	0.997441
993.653188	0.997643
993.948890	0.997423
994.244556	0.997487
994.540186	0.998309
994.835780	0.996020
995.131337	0.996828
995.426859	0.995641
995.722345	0.997315
996.017795	0.996710
996.313208	0.995920
996.608586	0.995933
996.903928	0.996833
997.199234	0.995644
997.494504	0.996613
997.789738	0.995564
998.084936	0.995767
998.380099	0.997698
998.675225	0.997837
998.970316	0.998779
999.265371	0.998881
999.560390	0.997665
999.855373	0.998511
1000.150320	0.998614
1000.445232	0.997861
1000.740108	0.997207
1001.034948	0.998402
1001.329752	0.999174
1001.624521	0.998639
1001.919254	0.998021
1002.213951	0.998409
1002.508613	0.997109
1002.803239	0.998475
1003.097829	0.999148
1003.392384	0.999336
1003.686903	0.997888
1003.981386	0.998354
1004.275834	0.999952
1004.570246	0.999088
1004.864623	0.998983
1005.158964	0.999127
1005.453270	0.998297
1005.747540	0.997109
1006.041775	0.997743
1006.335974	0.998836
1006.630138	0.999944
1006.924266	0.999225
1007.218359	0.999367
1007.512416	0.998924
1007.806438	0.998280
1008.100425	0.998952
1008.394376	0.998799
1008.688292	0.999429
1008.982172	1.000097
1009.276017	0.999602
1009.569827	0.997603
1009.863602	0.998485
1010.157341	0.998932
1010.451045	0.999999
1010.744714	0.999003
1011.038347	0.999216
1011.331945	0.998471
1011.625508	0.997556
1011.919036	0.999080
1012.212528	0.999781
1012.505986	0.998362
1012.799408	0.999563
1013.092795	0.998709
1013.386147	1.000211
1013.679464	0.998994
1013.972745	0.998855
1014.265992	0.998114
1014.559204	0.998947
1014.852380	0.999396
1015.145521	0.999587
1015.438628	0.998899
1015.731699	0.999404
1016.024736	0.997310
1016.317737	0.998838
1016.610703	0.998145
1016.903635	0.998650
1017.196531	0.998909
1017.489393	0.997862
1017.782219	0.998244
1018.075011	0.998296
1018.367768	0.999804
1018.660490	0.998598
1018.953177	0.998598
1019.245829	0.998598
