Dividing Wavelength (nm)	Counts (n)	Blue Motor Position (mm): 0.000000	Red Motor Position (mm): 18.900000	
326.493990	1.002145
326.888308	1.002145
327.282561	1.002145
327.676750	0.999601
328.070874	0.999344
328.464933	0.999686
328.858929	0.999268
329.252859	0.998999
329.646726	0.998914
330.040528	0.999651
330.434265	0.998857
330.827938	1.001649
331.221547	0.999223
331.615091	0.999375
332.008571	1.000394
332.401986	1.000387
332.795338	0.999953
333.188625	0.997795
333.581847	1.000218
333.975006	0.999005
334.368100	1.000228
334.761129	0.999150
335.154095	1.000636
335.546996	0.998166
335.939833	0.993807
336.332606	0.993854
336.725315	0.994680
337.117960	0.994730
337.510540	0.994038
337.903056	0.995851
338.295508	0.992891
338.687896	0.994097
339.080220	0.993948
339.472480	0.993978
339.864676	0.993910
340.256807	0.994684
340.648875	0.995292
341.040879	0.994205
341.432818	0.993720
341.824694	0.992855
342.216506	0.994652
342.608253	0.993612
342.999937	0.993268
343.391557	0.993171
343.783113	0.994476
344.174605	0.995558
344.566033	0.994327
344.957397	0.993069
345.348697	0.994816
345.739934	0.993984
346.131106	0.993639
346.522215	0.994001
346.913260	0.994183
347.304241	0.994793
347.695159	0.993400
348.086012	0.991813
348.476802	0.994719
348.867528	0.993921
349.258191	0.992592
349.648789	0.994281
350.039324	0.993324
350.429796	0.994972
350.820203	0.994659
351.210548	0.994621
351.600828	0.994127
351.991045	0.994737
352.381198	0.993849
352.771288	0.994284
353.161314	0.993938
353.551276	0.995194
353.941175	0.994151
354.331010	0.994471
354.720782	0.995188
355.110490	0.994206
355.500135	0.993581
355.889717	0.994934
356.279235	0.994594
356.668689	0.993610
357.058080	0.994205
357.447408	0.994593
357.836672	0.994266
358.225873	0.994301
358.615010	0.994845
359.004084	0.994150
359.393095	0.994693
359.782043	0.994329
360.170927	0.996405
360.559748	0.993875
360.948505	0.993697
361.337199	0.993505
361.725830	0.994501
362.114398	0.993955
362.502903	0.994042
362.891344	0.994422
363.279722	0.992701
363.668037	0.994941
364.056289	0.994735
364.444478	0.994162
364.832603	0.994461
365.220665	0.994790
365.608665	0.994003
365.996601	0.993899
366.384474	0.994614
366.772284	0.995211
367.160031	0.993005
367.547715	0.991750
367.935336	0.993135
368.322893	0.994123
368.710388	0.993733
369.097820	0.993465
369.485189	0.993309
369.872495	0.993621
370.259738	0.991905
370.646918	0.994629
371.034035	0.994358
371.421090	0.993333
371.808081	0.993726
372.195010	0.994164
372.581875	0.995234
372.968678	0.994767
373.355418	0.994451
373.742096	0.993969
374.128710	0.995386
374.515262	0.993868
374.901751	0.995455
375.288177	0.994201
375.674540	0.995253
376.060841	0.994177
376.447079	0.993919
376.833254	0.994995
377.219367	0.995848
377.605417	0.994568
377.991404	0.995041
378.377329	0.993538
378.763191	0.994131
379.148991	0.995755
379.534727	0.994993
379.920402	0.994746
380.306013	0.995770
380.691563	0.994963
381.077049	0.994788
381.462474	0.995735
381.847835	0.996219
382.233134	0.994730
382.618371	0.994740
383.003545	0.994570
383.388657	0.994082
383.773706	0.995595
384.158693	0.995144
384.543618	0.995624
384.928480	0.995530
385.313280	0.995562
385.698017	0.996180
386.082692	0.995889
386.467305	0.995477
386.851856	0.995111
387.236344	0.995225
387.620770	0.995213
388.005133	0.995764
388.389435	0.996365
388.773674	0.995065
389.157851	0.996505
389.541965	0.995309
389.926018	0.994753
390.310008	0.996348
390.693936	0.994582
391.077802	0.996321
391.461606	0.994935
391.845348	0.995904
392.229027	0.997114
392.612645	0.995356
392.996200	0.996192
393.379694	0.996229
393.763125	0.996087
394.146494	0.996168
394.529801	0.995257
394.913047	0.995522
395.296230	0.995741
395.679351	0.995569
396.062410	0.994808
396.445408	0.996035
396.828343	0.995185
397.211217	0.995252
397.594028	0.994969
397.976778	0.994620
398.359466	0.994812
398.742092	0.994849
399.124656	0.994868
399.507158	0.995680
399.889598	0.995132
400.271977	0.995642
400.654294	0.995482
401.036549	0.995379
401.418742	0.995425
401.800874	0.994041
402.182944	0.995123
402.564952	0.994218
402.946898	0.995233
403.328783	0.995074
403.710606	0.994698
404.092367	0.995211
404.474067	0.994272
404.855705	0.993543
405.237282	0.993869
405.618797	0.993671
406.000250	0.992268
406.381642	0.992723
406.762972	0.991123
407.144240	0.992057
407.525447	0.989767
407.906593	0.988795
408.287677	0.987682
408.668700	0.985321
409.049661	0.983332
409.430560	0.981937
409.811399	0.979445
410.192176	0.975922
410.572891	0.974556
410.953545	0.970960
411.334138	0.968158
411.714669	0.965332
412.095139	0.963108
412.475547	0.958858
412.855894	0.955026
413.236180	0.951760
413.616405	0.947987
413.996568	0.942963
414.376670	0.938398
414.756711	0.934915
415.136691	0.930377
415.516609	0.922831
415.896466	0.917116
416.276262	0.910224
416.655997	0.906205
417.035670	0.895903
417.415283	0.887910
417.794834	0.882495
418.174324	0.877620
418.553753	0.873004
418.933121	0.860548
419.312428	0.852337
419.691674	0.845746
420.070859	0.834750
420.449983	0.829220
420.829045	0.817593
421.208047	0.813703
421.586988	0.801879
421.965867	0.792554
422.344686	0.779178
422.723444	0.775703
423.102141	0.774950
423.480777	0.754400
423.859352	0.754477
424.237866	0.734029
424.616319	0.726397
424.994712	0.713252
425.373044	0.709655
425.751314	0.692706
426.129524	0.693615
426.507673	0.674931
426.885762	0.663780
427.263789	0.657365
427.641756	0.655876
428.019662	0.640127
428.397508	0.631263
428.775292	0.625012
429.153016	0.611858
429.530679	0.608712
429.908282	0.596481
430.285824	0.596487
430.663305	0.572677
431.040726	0.581457
431.418086	0.575875
431.795385	0.561971
432.172624	0.554041
432.549802	0.549039
432.926920	0.541661
433.303977	0.535295
433.680974	0.527746
434.057910	0.520265
434.434786	0.515177
434.811601	0.512415
435.188355	0.492182
435.565050	0.495877
435.941683	0.492978
436.318257	0.474670
436.694770	0.470921
437.071222	0.465429
437.447614	0.465446
437.823946	0.469155
438.200218	0.456034
438.576429	0.462228
438.952580	0.452720
439.328670	0.446625
439.704700	0.451386
440.080670	0.450105
440.456580	0.429606
440.832429	0.435432
441.208218	0.444058
441.583947	0.432229
441.959616	0.430724
442.335224	0.433643
442.710773	0.423957
443.086261	0.420393
443.461689	0.433215
443.837057	0.422937
444.212365	0.411630
444.587612	0.418112
444.962800	0.407308
445.337927	0.408137
445.712995	0.433983
446.088002	0.396371
446.462949	0.405806
446.837837	0.410337
447.212664	0.398934
447.587431	0.389725
447.962139	0.360434
448.336786	0.319924
448.711374	0.330052
449.085901	0.373566
449.460369	0.377657
449.834776	0.381166
450.209124	0.360313
450.583412	0.352937
450.957640	0.345857
451.331808	0.356964
451.705917	0.380317
452.079965	0.384298
452.453954	0.372874
452.827883	0.379575
453.201752	0.374384
453.575562	0.385753
453.949311	0.373964
454.323001	0.380420
454.696632	0.375518
455.070202	0.368558
455.443713	0.360011
455.817164	0.355560
456.190556	0.350784
456.563888	0.347245
456.937160	0.345217
457.310373	0.362270
457.683526	0.361281
458.056619	0.366844
458.429653	0.367481
458.802628	0.370659
459.175542	0.365126
459.548398	0.347635
459.921194	0.340160
460.293930	0.340169
460.666607	0.317892
461.039224	0.306381
461.411782	0.301543
461.784280	0.300989
462.156719	0.305161
462.529099	0.309920
462.901419	0.325523
463.273680	0.330265
463.645882	0.329716
464.018024	0.335232
464.390106	0.328302
464.762130	0.312924
465.134094	0.296293
465.505999	0.265427
465.877845	0.236185
466.249631	0.223224
466.621358	0.230581
466.993026	0.244332
467.364634	0.250371
467.736184	0.259579
468.107674	0.268059
468.479105	0.267417
468.850477	0.273968
469.221790	0.280859
469.593043	0.290995
469.964238	0.295829
470.335373	0.295096
470.706449	0.293301
471.077467	0.294227
471.448425	0.256185
471.819324	0.231941
472.190164	0.231210
472.560945	0.259915
472.931667	0.282171
473.302330	0.286379
473.672934	0.297983
474.043479	0.286189
474.413965	0.288317
474.784393	0.291493
475.154761	0.286857
475.525070	0.283849
475.895321	0.289504
476.265513	0.283589
476.635645	0.278968
477.005719	0.278978
477.375734	0.275897
477.745691	0.269180
478.115588	0.265684
478.485427	0.258890
478.855207	0.245950
479.224928	0.228748
479.594591	0.216711
479.964194	0.220169
480.333739	0.221215
480.703226	0.222762
481.072653	0.221130
481.442022	0.216996
481.811333	0.213380
482.180584	0.217102
482.549777	0.222244
482.918912	0.225598
483.287988	0.225343
483.657005	0.224882
484.025964	0.231596
484.394864	0.228837
484.763706	0.229157
485.132489	0.234124
485.501213	0.234580
485.869879	0.233497
486.238487	0.236746
486.607036	0.234416
486.975527	0.238892
487.343959	0.234887
487.712333	0.233532
488.080648	0.235120
488.448905	0.234586
488.817104	0.235831
489.185244	0.230198
489.553326	0.227245
489.921350	0.217035
490.289315	0.199538
490.657222	0.194650
491.025070	0.195659
491.392861	0.197689
491.760593	0.203595
492.128267	0.208935
492.495883	0.214587
492.863440	0.220799
493.230939	0.227051
493.598380	0.227969
493.965763	0.230482
494.333088	0.232569
494.700354	0.234194
495.067563	0.233423
495.434713	0.236525
495.801805	0.234564
496.168839	0.235782
496.535815	0.237087
496.902733	0.237120
497.269593	0.238888
497.636395	0.236437
498.003139	0.236623
498.369825	0.239767
498.736453	0.236097
499.103023	0.237506
499.469535	0.237046
499.835989	0.237062
500.202385	0.238181
500.568723	0.241144
500.935003	0.236713
501.301226	0.240908
501.667390	0.235149
502.033497	0.233418
502.399546	0.236590
502.765537	0.238122
503.131470	0.236702
503.497345	0.232836
503.863163	0.241546
504.228923	0.234636
504.594625	0.233241
504.960269	0.238821
505.325856	0.233996
505.691385	0.238315
506.056856	0.235062
506.422270	0.234531
506.787625	0.236975
507.152924	0.234332
507.518164	0.234755
507.883347	0.236393
508.248472	0.238127
508.613540	0.232995
508.978550	0.235908
509.343503	0.236365
509.708398	0.234043
510.073236	0.231526
510.438016	0.231554
510.802738	0.232367
511.167403	0.231268
511.532010	0.233556
511.896561	0.228773
512.261053	0.227644
512.625488	0.229743
512.989866	0.229968
513.354186	0.230161
513.718449	0.232082
514.082655	0.228659
514.446803	0.230743
514.810894	0.228491
515.174927	0.230928
515.538904	0.230521
515.902822	0.227427
516.266684	0.229774
516.630488	0.231085
516.994235	0.229731
517.357925	0.228548
517.721558	0.226850
518.085133	0.226581
518.448651	0.226613
518.812112	0.228494
519.175516	0.228276
519.538863	0.226090
519.902152	0.227917
520.265385	0.224313
520.628560	0.226323
520.991678	0.226792
521.354739	0.225600
521.717743	0.226867
522.080690	0.227276
522.443580	0.224453
522.806413	0.225467
523.169189	0.224751
523.531908	0.223541
523.894569	0.227468
524.257174	0.227215
524.619722	0.224895
524.982213	0.225879
525.344647	0.224736
525.707025	0.225680
526.069345	0.223897
526.431608	0.225332
526.793815	0.223494
527.155964	0.227816
527.518057	0.226623
527.880093	0.227850
528.242072	0.226163
528.603995	0.228210
528.965860	0.229733
529.327669	0.228305
529.689421	0.229615
530.051117	0.230575
530.412755	0.228258
530.774337	0.230619
531.135862	0.230558
531.497331	0.229924
531.858743	0.233157
532.220098	0.229654
532.581396	0.232427
532.942638	0.232446
533.303824	0.233575
533.664953	0.233492
534.026025	0.235049
534.387040	0.233021
534.747999	0.233245
535.108902	0.232247
535.469748	0.236756
535.830537	0.234579
536.191270	0.235415
536.551947	0.234810
536.912567	0.234865
537.273131	0.236451
537.633638	0.236799
537.994089	0.237033
538.354483	0.237993
538.714821	0.235160
539.075103	0.234708
539.435328	0.235715
539.795497	0.239326
540.155609	0.235798
540.515665	0.233887
540.875665	0.239839
541.235609	0.238270
541.595496	0.238449
541.955328	0.234602
542.315102	0.237464
542.674821	0.238690
543.034483	0.238560
543.394090	0.238405
543.753640	0.240085
544.113134	0.235135
544.472571	0.238327
544.831953	0.235360
545.191278	0.239570
545.550548	0.238905
545.909761	0.235687
546.268918	0.236338
546.628019	0.234639
546.987064	0.237602
547.346053	0.239322
547.704986	0.236990
548.063863	0.237785
548.422684	0.237680
548.781449	0.239618
549.140158	0.237101
549.498811	0.240050
549.857408	0.243008
550.215949	0.237860
550.574434	0.240832
550.932864	0.239022
551.291237	0.237219
551.649555	0.238939
552.007817	0.238817
552.366022	0.239553
552.724173	0.239735
553.082267	0.239840
553.440305	0.236981
553.798288	0.241598
554.156215	0.237934
554.514086	0.238568
554.871902	0.242057
555.229661	0.241121
555.587365	0.241415
555.945014	0.244103
556.302606	0.240803
556.660143	0.243398
557.017625	0.240040
557.375050	0.242196
557.732421	0.239044
558.089735	0.241269
558.446994	0.241261
558.804197	0.240599
559.161345	0.240247
559.518437	0.243820
559.875474	0.241889
560.232455	0.240880
560.589381	0.242571
560.946251	0.242190
561.303065	0.239829
561.659825	0.241478
562.016528	0.242645
562.373177	0.245659
562.729770	0.243155
563.086307	0.244966
563.442789	0.242625
563.799216	0.245542
564.155587	0.244294
564.511904	0.245066
564.868164	0.245701
565.224370	0.245663
565.580520	0.247150
565.936615	0.246951
566.292654	0.250030
566.648638	0.246801
567.004567	0.248048
567.360441	0.248394
567.716260	0.250751
568.072023	0.248349
568.427732	0.249145
568.783385	0.251476
569.138982	0.249578
569.494525	0.249207
569.850013	0.252187
570.205445	0.250459
570.560823	0.252996
570.916145	0.254962
571.271412	0.253166
571.626625	0.254738
571.981782	0.254830
572.336884	0.256248
572.691931	0.255531
573.046923	0.256994
573.401860	0.258364
573.756743	0.259755
574.111570	0.258606
574.466342	0.259200
574.821059	0.258523
575.175722	0.261074
575.530330	0.261154
575.884882	0.261114
576.239380	0.263163
576.593823	0.263935
576.948211	0.263223
577.302544	0.266429
577.656823	0.265865
578.011047	0.265860
578.365216	0.266752
578.719330	0.268815
579.073389	0.268598
579.427394	0.270128
579.781344	0.270899
580.135239	0.272320
580.489080	0.271828
580.842866	0.274910
581.196597	0.274476
581.550273	0.273368
581.903895	0.274288
582.257463	0.272422
582.610975	0.276100
582.964434	0.275111
583.317837	0.277565
583.671186	0.277776
584.024481	0.278018
584.377721	0.280756
584.730906	0.281285
585.084037	0.280249
585.437113	0.282328
585.790135	0.281657
586.143103	0.284532
586.496016	0.285944
586.848874	0.283480
587.201679	0.283907
587.554428	0.287085
587.907124	0.285998
588.259765	0.286688
588.612352	0.286949
588.964884	0.290990
589.317362	0.290724
589.669786	0.290423
590.022155	0.288849
590.374470	0.288361
590.726731	0.290444
591.078937	0.295277
591.431090	0.291502
591.783188	0.295950
592.135232	0.296021
592.487222	0.296137
592.839157	0.294530
593.191038	0.296608
593.542866	0.298263
593.894639	0.301727
594.246358	0.299745
594.598022	0.299454
594.949633	0.303351
595.301190	0.304208
595.652692	0.302953
596.004141	0.299223
596.355535	0.307220
596.706876	0.307471
597.058162	0.310000
597.409395	0.307160
597.760573	0.305073
598.111698	0.308400
598.462768	0.308511
598.813785	0.310111
599.164748	0.311004
599.515657	0.311435
599.866511	0.315064
600.217312	0.310037
600.568060	0.315765
600.918753	0.311882
601.269392	0.312710
601.619978	0.316277
601.970510	0.314046
602.320988	0.313950
602.671412	0.311659
603.021783	0.314386
603.372100	0.315742
603.722363	0.315295
604.072572	0.316107
604.422728	0.316231
604.772830	0.317778
605.122878	0.317478
605.472872	0.318208
605.822813	0.316328
606.172701	0.319128
606.522534	0.316211
606.872314	0.316658
607.222041	0.317536
607.571714	0.315636
607.921333	0.316812
608.270899	0.316615
608.620411	0.313669
608.969870	0.317072
609.319276	0.317330
609.668627	0.317218
610.017926	0.315673
610.367171	0.314091
610.716362	0.315227
611.065500	0.315082
611.414585	0.314186
611.763616	0.314585
612.112594	0.315066
612.461518	0.314415
612.810389	0.312066
613.159207	0.314480
613.507971	0.316403
613.856682	0.311990
614.205340	0.313579
614.553945	0.310165
614.902496	0.314428
615.250994	0.312284
615.599439	0.313339
615.947830	0.312519
616.296169	0.313654
616.644454	0.313126
616.992686	0.312942
617.340864	0.310560
617.688990	0.314722
618.037063	0.310874
618.385082	0.312989
618.733048	0.309722
619.080961	0.312122
619.428821	0.311308
619.776628	0.310873
620.124382	0.313227
620.472083	0.313247
620.819731	0.312734
621.167326	0.316520
621.514868	0.316001
621.862357	0.320832
622.209793	0.320455
622.557176	0.322515
622.904506	0.323483
623.251783	0.325785
623.599007	0.328373
623.946179	0.327353
624.293297	0.329689
624.640363	0.333598
624.987376	0.334342
625.334336	0.336526
625.681243	0.338703
626.028097	0.339086
626.374899	0.340469
626.721647	0.340698
627.068343	0.344116
627.414987	0.345085
627.761577	0.347582
628.108115	0.345070
628.454600	0.350451
628.801032	0.347957
629.147412	0.350152
629.493739	0.350307
629.840014	0.353351
630.186236	0.351353
630.532405	0.356512
630.878521	0.353701
631.224585	0.355926
631.570597	0.359781
631.916556	0.358170
632.262462	0.358411
632.608316	0.360626
632.954117	0.361168
633.299866	0.361928
633.645562	0.362067
633.991206	0.366685
634.336797	0.369888
634.682336	0.371669
635.027823	0.373417
635.373257	0.374328
635.718639	0.378039
636.063968	0.377288
636.409245	0.383182
636.754470	0.383095
637.099642	0.385442
637.444762	0.388721
637.789829	0.388152
638.134845	0.391519
638.479808	0.392715
638.824719	0.392308
639.169577	0.396321
639.514383	0.395130
639.859137	0.399482
640.203839	0.399194
640.548489	0.399836
640.893086	0.401351
641.237632	0.402730
641.582125	0.401227
641.926566	0.402539
642.270955	0.402919
642.615292	0.403226
642.959576	0.402276
643.303809	0.403235
643.647990	0.402578
643.992118	0.402871
644.336195	0.406919
644.680219	0.405094
645.024192	0.405838
645.368112	0.398693
645.711981	0.397926
646.055797	0.393197
646.399562	0.396053
646.743274	0.387670
647.086935	0.384996
647.430544	0.385342
647.774101	0.384364
648.117606	0.384132
648.461059	0.384632
648.804460	0.386757
649.147810	0.392053
649.491108	0.393680
649.834354	0.394956
650.177548	0.400812
650.520690	0.405989
650.863781	0.407298
651.206820	0.406442
651.549807	0.411223
651.892742	0.415241
652.235626	0.414594
652.578458	0.415385
652.921238	0.421688
653.263967	0.419209
653.606644	0.423811
653.949269	0.423276
654.291843	0.426845
654.634365	0.423998
654.976836	0.427142
655.319255	0.427078
655.661622	0.428830
656.003938	0.428752
656.346203	0.431346
656.688416	0.429434
657.030577	0.432834
657.372687	0.434752
657.714746	0.435754
658.056753	0.432835
658.398708	0.436561
658.740612	0.438016
659.082465	0.433946
659.424266	0.434537
659.766016	0.433915
660.107715	0.436699
660.449362	0.435675
660.790958	0.436435
661.132503	0.437118
661.473996	0.434253
661.815438	0.435423
662.156829	0.435339
662.498168	0.436227
662.839456	0.437530
663.180693	0.435280
663.521879	0.435211
663.863013	0.436266
664.204097	0.434787
664.545129	0.431524
664.886110	0.431979
665.227040	0.429215
665.567918	0.431914
665.908746	0.429799
666.249522	0.429279
666.590248	0.430416
666.930922	0.428765
667.271545	0.427350
667.612118	0.427730
667.952639	0.429133
668.293109	0.428201
668.633528	0.430631
668.973896	0.430617
669.314213	0.431099
669.654480	0.432852
669.994695	0.433167
670.334859	0.434009
670.674973	0.434053
671.015035	0.434465
671.355047	0.434050
671.695008	0.435794
672.034918	0.437494
672.374777	0.436529
672.714585	0.437718
673.054342	0.437382
673.394049	0.437671
673.733705	0.435208
674.073310	0.436346
674.412864	0.439535
674.752368	0.440088
675.091820	0.440310
675.431223	0.444995
675.770574	0.444428
676.109875	0.447228
676.449125	0.447239
676.788324	0.449911
677.127473	0.455086
677.466571	0.454953
677.805619	0.456437
678.144616	0.457462
678.483562	0.459203
678.822458	0.461830
679.161303	0.463227
679.500098	0.463484
679.838842	0.464956
680.177535	0.464326
680.516179	0.463247
680.854771	0.462228
681.193314	0.455487
681.531805	0.446556
681.870247	0.435590
682.208638	0.427937
682.546978	0.426984
682.885268	0.428520
683.223508	0.434326
683.561697	0.438486
683.899836	0.441288
684.237925	0.444956
684.575963	0.446853
684.913951	0.450935
685.251889	0.446024
685.589776	0.448002
685.927614	0.450329
686.265401	0.444929
686.603137	0.446434
686.940824	0.439836
687.278460	0.438421
687.616046	0.437962
687.953582	0.432303
688.291068	0.433786
688.628504	0.430176
688.965889	0.432177
689.303224	0.436217
689.640510	0.439648
689.977745	0.446127
690.314930	0.453582
690.652065	0.458181
690.989150	0.465491
691.326185	0.472279
691.663170	0.476627
692.000105	0.484066
692.336990	0.490733
692.673825	0.493393
693.010610	0.500249
693.347345	0.506069
693.684030	0.507069
694.020665	0.511761
694.357251	0.521271
694.693786	0.520116
695.030272	0.524487
695.366707	0.527905
695.703093	0.531694
696.039429	0.529784
696.375716	0.530947
696.711952	0.533762
697.048139	0.535350
697.384276	0.538000
697.720363	0.535882
698.056400	0.535091
698.392388	0.540602
698.728326	0.543564
699.064214	0.546218
699.400053	0.547029
699.735842	0.550306
700.071581	0.553490
700.407270	0.557384
700.742910	0.558201
701.078501	0.565613
701.414042	0.565989
701.749533	0.568111
702.084974	0.577474
702.420366	0.569727
702.755709	0.576900
703.091002	0.585833
703.426246	0.578090
703.761440	0.584381
704.096584	0.589617
704.431679	0.586548
704.766725	0.588370
705.101721	0.589840
705.436668	0.586142
705.771565	0.593135
706.106413	0.589810
706.441212	0.584696
706.775961	0.584417
707.110661	0.587046
707.445311	0.582936
707.779913	0.580071
708.114465	0.578943
708.448967	0.575429
708.783421	0.567201
709.117825	0.562300
709.452180	0.562534
709.786485	0.556257
710.120742	0.546016
710.454949	0.547836
710.789107	0.539901
711.123216	0.531010
711.457275	0.532929
711.791286	0.523426
712.125247	0.522337
712.459159	0.532747
712.793023	0.526468
713.126837	0.530285
713.460602	0.530968
713.794318	0.539896
714.127985	0.539194
714.461602	0.548880
714.795171	0.551731
715.128691	0.560280
715.462162	0.567122
715.795584	0.572785
716.128957	0.575828
716.462281	0.582196
716.795556	0.585993
717.128782	0.590198
717.461960	0.600036
717.795088	0.598946
718.128167	0.605351
718.461198	0.614167
718.794180	0.614350
719.127113	0.617170
719.459997	0.620674
719.792833	0.626947
720.125619	0.628224
720.458357	0.633750
720.791046	0.633055
721.123686	0.637801
721.456278	0.643484
721.788821	0.641828
722.121315	0.644405
722.453761	0.649822
722.786158	0.647751
723.118506	0.643794
723.450805	0.651865
723.783056	0.648211
724.115259	0.645295
724.447412	0.644573
724.779518	0.646232
725.111574	0.644913
725.443582	0.640612
725.775542	0.642544
726.107453	0.635416
726.439315	0.634960
726.771129	0.632866
727.102895	0.626859
727.434612	0.620142
727.766281	0.617402
728.097901	0.616087
728.429473	0.616691
728.760996	0.615177
729.092471	0.615362
729.423897	0.619061
729.755276	0.617507
730.086606	0.617734
730.417887	0.612915
730.749120	0.602844
731.080305	0.594531
731.411442	0.590377
731.742530	0.595005
732.073570	0.594550
732.404562	0.586756
732.735506	0.587412
733.066401	0.592880
733.397249	0.601586
733.728048	0.613007
734.058798	0.625084
734.389501	0.636639
734.720156	0.646378
735.050762	0.653599
735.381320	0.654949
735.711831	0.664076
736.042293	0.669256
736.372707	0.665164
736.703073	0.669901
737.033391	0.672036
737.363661	0.668229
737.693883	0.663876
738.024056	0.662592
738.354182	0.663489
738.684260	0.652262
739.014290	0.648612
739.344272	0.649073
739.674207	0.642883
740.004093	0.641730
740.333931	0.642144
740.663722	0.643055
740.993464	0.643389
741.323159	0.647555
741.652806	0.652011
741.982405	0.656854
742.311956	0.661468
742.641460	0.662359
742.970915	0.667601
743.300323	0.674962
743.629683	0.681388
743.958996	0.684206
744.288260	0.687531
744.617477	0.693498
744.946647	0.695124
745.275768	0.700697
745.604842	0.700089
745.933869	0.710147
746.262847	0.710666
746.591778	0.704405
746.920662	0.710736
747.249498	0.717128
747.578286	0.708363
747.907027	0.704448
748.235720	0.705089
748.564365	0.700064
748.892963	0.700223
749.221514	0.702744
749.550017	0.707460
749.878473	0.707694
750.206881	0.713909
750.535242	0.715773
750.863555	0.714964
751.191821	0.716400
751.520039	0.719501
751.848210	0.723813
752.176334	0.716589
752.504411	0.715447
752.832440	0.723243
753.160421	0.727477
753.488356	0.726315
753.816243	0.723739
754.144082	0.732912
754.471875	0.735100
754.799620	0.731879
755.127318	0.732462
755.454969	0.732055
755.782572	0.730975
756.110129	0.736729
756.437638	0.738219
756.765100	0.735649
757.092515	0.733051
757.419882	0.733519
757.747203	0.737477
758.074477	0.736416
758.401703	0.734032
758.728882	0.729045
759.056014	0.728113
759.383099	0.726892
759.710138	0.728225
760.037129	0.724586
760.364073	0.717667
760.690970	0.721243
761.017820	0.727177
761.344623	0.722444
761.671379	0.713491
761.998088	0.701667
762.324751	0.678869
762.651366	0.637963
762.977935	0.570648
763.304456	0.518368
763.630931	0.509438
763.957359	0.547496
764.283740	0.592483
764.610074	0.619506
764.936362	0.649737
765.262602	0.677052
765.588796	0.698715
765.914943	0.717542
766.241044	0.734849
766.567097	0.741142
766.893104	0.751285
767.219064	0.757787
767.544978	0.763323
767.870845	0.777996
768.196665	0.780787
768.522438	0.778856
768.848165	0.780250
769.173846	0.789573
769.499479	0.794143
769.825066	0.797874
770.150607	0.802387
770.476101	0.798320
770.801548	0.799135
771.126949	0.810108
771.452303	0.814384
771.777611	0.813503
772.102872	0.812523
772.428087	0.816837
772.753256	0.821284
773.078378	0.822199
773.403453	0.831475
773.728482	0.836314
774.053465	0.830341
774.378401	0.833087
774.703291	0.842392
775.028135	0.840975
775.352932	0.843357
775.677683	0.845797
776.002388	0.845890
776.327046	0.846047
776.651658	0.848796
776.976224	0.851502
777.300743	0.853149
777.625216	0.854361
777.949643	0.855951
778.274024	0.855584
778.598359	0.858709
778.922647	0.856580
779.246889	0.856820
779.571086	0.861485
779.895236	0.863239
780.219339	0.860829
780.543397	0.858127
780.867409	0.855800
781.191374	0.857766
781.515294	0.860910
781.839167	0.858547
782.162995	0.861232
782.486776	0.859094
782.810511	0.859507
783.134201	0.864366
783.457844	0.861252
783.781441	0.863758
784.104993	0.870692
784.428498	0.870386
784.751958	0.865778
785.075372	0.868086
785.398739	0.871757
785.722061	0.867664
786.045337	0.863988
786.368568	0.868553
786.691752	0.870927
787.014891	0.856655
787.337983	0.848684
787.661030	0.841320
787.984031	0.823225
788.306987	0.810482
788.629897	0.812237
788.952760	0.816759
789.275579	0.820478
789.598351	0.836282
789.921078	0.848510
790.243759	0.850761
790.566395	0.855949
790.888984	0.863391
791.211529	0.868844
791.534027	0.871694
791.856480	0.873167
792.178888	0.878528
792.501249	0.881580
792.823566	0.883173
793.145836	0.881802
793.468062	0.884702
793.790241	0.883755
794.112375	0.881881
794.434464	0.877789
794.756507	0.878053
795.078505	0.876731
795.400457	0.871257
795.722364	0.859453
796.044226	0.852345
796.366042	0.851560
796.687812	0.854077
797.009538	0.851672
797.331218	0.853947
797.652852	0.859815
797.974442	0.864687
798.295986	0.863548
798.617484	0.866552
798.938938	0.870195
799.260346	0.874933
799.581709	0.877315
799.903026	0.879208
800.224299	0.879391
800.545526	0.885418
800.866708	0.888763
801.187845	0.891411
801.508936	0.891488
801.829983	0.888873
802.150984	0.892306
802.471940	0.897628
802.792851	0.897444
803.113717	0.898569
803.434538	0.896246
803.755314	0.898955
804.076045	0.899605
804.396731	0.899171
804.717372	0.900083
805.037967	0.901449
805.358518	0.900304
805.679024	0.896402
805.999485	0.895841
806.319901	0.896972
806.640272	0.897569
806.960598	0.895915
807.280879	0.893090
807.601115	0.891891
807.921306	0.894896
808.241453	0.896309
808.561554	0.893321
808.881611	0.893996
809.201623	0.895503
809.521590	0.895876
809.841513	0.897073
810.161390	0.896346
810.481223	0.897309
810.801011	0.901537
811.120755	0.902453
811.440453	0.901298
811.760107	0.900400
812.079716	0.899735
812.399281	0.903273
812.718801	0.906787
813.038276	0.906942
813.357707	0.906245
813.677093	0.903003
813.996434	0.906664
814.315731	0.908515
814.634983	0.908554
814.954191	0.906778
815.273354	0.904667
815.592473	0.900833
815.911547	0.901069
816.230577	0.898584
816.549562	0.895856
816.868502	0.897397
817.187399	0.893202
817.506250	0.887942
817.825058	0.888832
818.143821	0.886760
818.462539	0.881236
818.781213	0.872857
819.099843	0.861135
819.418429	0.846486
819.736970	0.829275
820.055466	0.809428
820.373919	0.784205
820.692327	0.751357
821.010691	0.716661
821.329011	0.639264
821.647286	0.523193
821.965517	0.409760
822.283704	0.366919
822.601847	0.367926
822.919945	0.403688
823.237999	0.437854
823.556010	0.484475
823.873976	0.539556
824.191897	0.591255
824.509775	0.633093
824.827609	0.679418
825.145398	0.700951
825.463144	0.703603
825.780845	0.686790
826.098502	0.667750
826.416116	0.622305
826.733685	0.578096
827.051210	0.569818
827.368692	0.584567
827.686129	0.622111
828.003522	0.675457
828.320872	0.722349
828.638177	0.766347
828.955439	0.799167
829.272656	0.821926
829.589830	0.837739
829.906960	0.854619
830.224046	0.866068
830.541088	0.876514
830.858086	0.881071
831.175041	0.886769
831.491952	0.886165
831.808819	0.883415
832.125642	0.876890
832.442421	0.861122
832.759157	0.839925
833.075849	0.793176
833.392497	0.728903
833.709101	0.689370
834.025662	0.698941
834.342179	0.730236
834.658653	0.769830
834.975083	0.806003
835.291469	0.830992
835.607811	0.854004
835.924110	0.869333
836.240366	0.886924
836.556578	0.900512
836.872746	0.908651
837.188871	0.914267
837.504952	0.919472
837.820990	0.924344
838.136984	0.927622
838.452935	0.929575
838.768842	0.931322
839.084706	0.925092
839.400526	0.899202
839.716303	0.858747
840.032037	0.836193
840.347727	0.839304
840.663373	0.858119
840.978977	0.879551
841.294537	0.902427
841.610054	0.918085
841.925527	0.925856
842.240957	0.933051
842.556344	0.938770
842.871687	0.946791
843.186987	0.950404
843.502244	0.949533
843.817458	0.951762
844.132629	0.956049
844.447756	0.959549
844.762840	0.960205
845.077881	0.958473
845.392879	0.960357
845.707833	0.961846
846.022745	0.965009
846.337613	0.964375
846.652438	0.966747
846.967221	0.965044
847.281960	0.965327
847.596656	0.967400
847.911309	0.965535
848.225919	0.967181
848.540485	0.968185
848.855009	0.967825
849.169490	0.967195
849.483928	0.968289
849.798323	0.968937
850.112675	0.969611
850.426984	0.968725
850.741251	0.970066
851.055474	0.970003
851.369654	0.967498
851.683792	0.968617
851.997887	0.969737
852.311938	0.970626
852.625947	0.970132
852.939914	0.967547
853.253837	0.969530
853.567718	0.970851
853.881555	0.970463
854.195350	0.967993
854.509103	0.969849
854.822812	0.970138
855.136479	0.969805
855.450103	0.969417
855.763685	0.967893
856.077224	0.968195
856.390720	0.970817
856.704173	0.969099
857.017584	0.968656
857.330953	0.966442
857.644278	0.968472
857.957561	0.968015
858.270802	0.968519
858.584000	0.967811
858.897155	0.965462
859.210268	0.967825
859.523339	0.968574
859.836367	0.970092
860.149352	0.971486
860.462295	0.968676
860.775195	0.970542
861.088054	0.968615
861.400869	0.969293
861.713642	0.969603
862.026373	0.969397
862.339062	0.971228
862.651708	0.967700
862.964312	0.967914
863.276873	0.969279
863.589392	0.968826
863.901869	0.965664
864.214303	0.966428
864.526696	0.963887
864.839045	0.963642
865.151353	0.961032
865.463619	0.961981
865.775842	0.962819
866.088023	0.962241
866.400162	0.962380
866.712258	0.961240
867.024313	0.962932
867.336325	0.962897
867.648296	0.963485
867.960224	0.962205
868.272110	0.961580
868.583954	0.963419
868.895755	0.963832
869.207515	0.960854
869.519233	0.959360
869.830909	0.959801
870.142542	0.962523
870.454134	0.961463
870.765684	0.959871
871.077191	0.956861
871.388657	0.958838
871.700081	0.957221
872.011463	0.958074
872.322803	0.956309
872.634101	0.957218
872.945357	0.953864
873.256571	0.952095
873.567744	0.952758
873.878874	0.953103
874.189963	0.952661
874.501010	0.950990
874.812015	0.950466
875.122979	0.951474
875.433900	0.952784
875.744780	0.954132
876.055618	0.950430
876.366415	0.949340
876.677169	0.948850
876.987882	0.952045
877.298554	0.951184
877.609183	0.948052
877.919771	0.945193
878.230317	0.943142
878.540822	0.940703
878.851285	0.934515
879.161707	0.926876
879.472087	0.915479
879.782425	0.897669
880.092722	0.864322
880.402977	0.812323
880.713191	0.751729
881.023363	0.692515
881.333494	0.659435
881.643583	0.630693
881.953631	0.630206
882.263637	0.659510
882.573602	0.699114
882.883526	0.724370
883.193408	0.747703
883.503248	0.768997
883.813048	0.797917
884.122806	0.826572
884.432522	0.850470
884.742197	0.870272
885.051831	0.880996
885.361424	0.892426
885.670975	0.903412
885.980485	0.912829
886.289954	0.919568
886.599382	0.924412
886.908768	0.927553
887.218113	0.934321
887.527417	0.940243
887.836680	0.941343
888.145901	0.944406
888.455082	0.946227
888.764221	0.949857
889.073319	0.953301
889.382376	0.952661
889.691392	0.952279
890.000366	0.952300
890.309300	0.954263
890.618193	0.952804
890.927044	0.951020
891.235855	0.951675
891.544625	0.951451
891.853353	0.951449
892.162041	0.949756
892.470687	0.941755
892.779293	0.938115
893.087858	0.934015
893.396381	0.926105
893.704864	0.912311
894.013306	0.889517
894.321707	0.861872
894.630068	0.848435
894.938387	0.842917
895.246665	0.844206
895.554903	0.855666
895.863100	0.869751
896.171256	0.887401
896.479371	0.906214
896.787446	0.918541
897.095480	0.925981
897.403473	0.928688
897.711425	0.932192
898.019336	0.939882
898.327207	0.941967
898.635038	0.944806
898.942827	0.945558
899.250576	0.948079
899.558284	0.950913
899.865952	0.953971
900.173579	0.955412
900.481165	0.955704
900.788711	0.960293
901.096216	0.961491
901.403681	0.962082
901.711105	0.961989
902.018489	0.963777
902.325832	0.962415
902.633135	0.961754
902.940397	0.955643
903.247619	0.944080
903.554800	0.918590
903.861941	0.878121
904.169041	0.842184
904.476101	0.825770
904.783121	0.826635
905.090100	0.841788
905.397039	0.864441
905.703938	0.886322
906.010796	0.907023
906.317614	0.922360
906.624391	0.934086
906.931129	0.943827
907.237826	0.952067
907.544483	0.958313
907.851099	0.962803
908.157675	0.966781
908.464211	0.969681
908.770707	0.972563
909.077163	0.973648
909.383578	0.973838
909.689954	0.974299
909.996289	0.975027
910.302584	0.977605
910.608839	0.979520
910.915054	0.978387
911.221229	0.978202
911.527363	0.976624
911.833458	0.977155
912.139513	0.977462
912.445527	0.974989
912.751502	0.973730
913.057436	0.973316
913.363331	0.969277
913.669186	0.966727
913.975000	0.962538
914.280775	0.955458
914.586510	0.948062
914.892205	0.936105
915.197859	0.914139
915.503475	0.885839
915.809050	0.866433
916.114585	0.861432
916.420081	0.858903
916.725536	0.854692
917.030952	0.864648
917.336328	0.876797
917.641665	0.891572
917.946961	0.907169
918.252218	0.919550
918.557435	0.928084
918.862612	0.936203
919.167750	0.942467
919.472848	0.946345
919.777906	0.952566
920.082925	0.957776
920.387904	0.961094
920.692843	0.962961
920.997743	0.963337
921.302603	0.968048
921.607423	0.969659
921.912204	0.970658
922.216946	0.971656
922.521647	0.974390
922.826310	0.974729
923.130932	0.975956
923.435516	0.978361
923.740059	0.980024
924.044564	0.978246
924.349028	0.979429
924.653454	0.982756
924.957840	0.984646
925.262186	0.983725
925.566493	0.983925
925.870761	0.984675
926.174989	0.985643
926.479178	0.988517
926.783328	0.988315
927.087438	0.988205
927.391509	0.987776
927.695541	0.989725
927.999533	0.989994
928.303486	0.988879
928.607400	0.991207
928.911275	0.990241
929.215110	0.991079
929.518906	0.990608
929.822663	0.989276
930.126381	0.991434
930.430060	0.989165
930.733699	0.989921
931.037299	0.989772
931.340861	0.990913
931.644383	0.989737
931.947866	0.988706
932.251309	0.990944
932.554714	0.990468
932.858080	0.990107
933.161407	0.990445
933.464694	0.990450
933.767943	0.989601
934.071153	0.990110
934.374323	0.992238
934.677455	0.991022
934.980548	0.991432
935.283602	0.990660
935.586617	0.991511
935.889593	0.989854
936.192530	0.991132
936.495428	0.991261
936.798287	0.990894
937.101108	0.990536
937.403890	0.989797
937.706632	0.988398
938.009336	0.986636
938.312002	0.985095
938.614628	0.983606
938.917216	0.983722
939.219765	0.980676
939.522275	0.982850
939.824747	0.982079
940.127179	0.983229
940.429573	0.984526
940.731929	0.984144
941.034246	0.984011
941.336524	0.986065
941.638763	0.986442
941.940964	0.986136
942.243126	0.987146
942.545250	0.986225
942.847335	0.988157
943.149381	0.987908
943.451389	0.987157
943.753359	0.987518
944.055290	0.990522
944.357182	0.990340
944.659036	0.988850
944.960851	0.989316
945.262628	0.989639
945.564367	0.990520
945.866067	0.989997
946.167729	0.988426
946.469352	0.989663
946.770937	0.989163
947.072484	0.991596
947.373992	0.989773
947.675462	0.990024
947.976893	0.989387
948.278286	0.990656
948.579641	0.990808
948.880958	0.990794
949.182236	0.990127
949.483476	0.990836
949.784678	0.990113
950.085841	0.991368
950.386967	0.991447
950.688054	0.989873
950.989103	0.991111
951.290114	0.988781
951.591087	0.988722
951.892021	0.989562
952.192917	0.988949
952.493776	0.989131
952.794596	0.987354
953.095378	0.988258
953.396122	0.988992
953.696828	0.986864
953.997496	0.989641
954.298126	0.991497
954.598718	0.990740
954.899272	0.992295
955.199788	0.990939
955.500266	0.991456
955.800706	0.991948
956.101108	0.992181
956.401472	0.993577
956.701798	0.994172
957.002087	0.993492
957.302337	0.995881
957.602550	0.994647
957.902724	0.994443
958.202861	0.994751
958.502960	0.995271
958.803022	0.993653
959.103045	0.995404
959.403031	0.996430
959.702979	0.995735
960.002889	0.996008
960.302762	0.994818
960.602596	0.996105
960.902393	0.994795
961.202153	0.997536
961.501875	0.996499
961.801559	0.994476
962.101205	0.995751
962.400814	0.996469
962.700385	0.997112
962.999918	0.995769
963.299414	0.997407
963.598873	0.994643
963.898293	0.996575
964.197677	0.995588
964.497022	0.996154
964.796331	0.998356
965.095601	0.996445
965.394835	0.996926
965.694030	0.996810
965.993189	0.996763
966.292309	0.996472
966.591393	0.998068
966.890439	0.998042
967.189447	0.996474
967.488419	0.996294
967.787353	0.995902
968.086249	0.996096
968.385108	0.997310
968.683930	0.996445
968.982714	0.997199
969.281462	0.997276
969.580172	0.996121
969.878844	0.997316
970.177480	0.996946
970.476078	0.997002
970.774639	0.996870
971.073162	0.997573
971.371649	0.996336
971.670098	0.996617
971.968510	0.997417
972.266885	0.995447
972.565223	0.995343
972.863524	0.995764
973.161788	0.996498
973.460014	0.996609
973.758204	0.995096
974.056356	0.996081
974.354471	0.994369
974.652550	0.995867
974.950591	0.996569
975.248595	0.995958
975.546563	0.996201
975.844493	0.997263
976.142386	0.997535
976.440243	0.996342
976.738062	0.996673
977.035845	0.997359
977.333590	0.996414
977.631299	0.998477
977.928971	0.996676
978.226606	0.996537
978.524204	0.995222
978.821765	0.997571
979.119290	0.996611
979.416777	0.996543
979.714228	0.997001
980.011642	0.995642
980.309020	0.997769
980.606360	0.996651
980.903664	0.998199
981.200931	0.996131
981.498162	0.995185
981.795356	0.995053
982.092513	0.993327
982.389633	0.995908
982.686717	0.991439
982.983764	0.992327
983.280775	0.989894
983.577749	0.990219
983.874686	0.992213
984.171587	0.991542
984.468451	0.993345
984.765279	0.993792
985.062070	0.994818
985.358824	0.995588
985.655543	0.994922
985.952224	0.996291
986.248869	0.996303
986.545478	0.997071
986.842050	0.998164
987.138586	0.994711
987.435086	0.997702
987.731549	0.998102
988.027975	0.997542
988.324366	0.997790
988.620719	0.997847
988.917037	0.995414
989.213318	0.997130
989.509563	0.997818
989.805772	0.998423
990.101944	0.998367
990.398080	0.997180
990.694180	0.997981
990.990244	0.997168
991.286271	0.997572
991.582262	0.998046
991.878217	0.998289
992.174136	0.998581
992.470019	0.997908
992.765865	0.998870
993.061676	0.997768
993.357450	0.997519
993.653188	0.998542
993.948890	0.997695
994.244556	0.997545
994.540186	0.996579
994.835780	0.997229
995.131337	0.996589
995.426859	0.997122
995.722345	0.997024
996.017795	0.995095
996.313208	0.995752
996.608586	0.995817
996.903928	0.997467
997.199234	0.995348
997.494504	0.996837
997.789738	0.997270
998.084936	0.995656
998.380099	0.997611
998.675225	0.996961
998.970316	0.998499
999.265371	0.999315
999.560390	0.998814
999.855373	0.998400
1000.150320	0.997436
1000.445232	0.998950
1000.740108	0.999087
1001.034948	0.998240
1001.329752	0.998367
1001.624521	0.998364
1001.919254	0.997753
1002.213951	0.997948
1002.508613	0.998630
1002.803239	0.999405
1003.097829	0.997756
1003.392384	0.999655
1003.686903	0.997594
1003.981386	0.998445
1004.275834	0.999272
1004.570246	0.998732
1004.864623	0.998323
1005.158964	0.999539
1005.453270	0.998229
1005.747540	0.997738
1006.041775	0.998116
1006.335974	0.999237
1006.630138	0.999076
1006.924266	0.999708
1007.218359	1.000816
1007.512416	0.999304
1007.806438	0.999689
1008.100425	0.999403
1008.394376	0.998761
1008.688292	0.999671
1008.982172	1.001130
1009.276017	0.999927
1009.569827	0.999084
1009.863602	0.998121
1010.157341	0.999403
1010.451045	0.999603
1010.744714	0.999667
1011.038347	0.998331
1011.331945	0.998093
1011.625508	0.997892
1011.919036	0.998355
1012.212528	0.998093
1012.505986	0.997622
1012.799408	0.998806
1013.092795	0.999497
1013.386147	0.999155
1013.679464	0.998718
1013.972745	0.998325
1014.265992	0.996998
1014.559204	0.998561
1014.852380	0.999331
1015.145521	0.998477
1015.438628	0.999578
1015.731699	0.999424
1016.024736	0.997913
1016.317737	0.998435
1016.610703	0.998917
1016.903635	0.999859
1017.196531	0.999607
1017.489393	0.999145
1017.782219	0.999258
1018.075011	0.998516
1018.367768	0.998255
1018.660490	0.999013
1018.953177	0.999013
1019.245829	0.999013
