Dividing Wavelength (nm)	Counts (n)	Blue Motor Position (mm): 0.000000	Red Motor Position (mm): 14.400000	
326.493990	1.001290
326.888308	1.001290
327.282561	1.001290
327.676750	1.000239
328.070874	0.998662
328.464933	1.000332
328.858929	0.999867
329.252859	0.999474
329.646726	0.999455
330.040528	1.000072
330.434265	0.999212
330.827938	1.000698
331.221547	1.001168
331.615091	0.999042
332.008571	1.000476
332.401986	1.000039
332.795338	1.000087
333.188625	0.997595
333.581847	0.998969
333.975006	0.998796
334.368100	0.998865
334.761129	0.999746
335.154095	0.999754
335.546996	0.997712
335.939833	0.992847
336.332606	0.994075
336.725315	0.994169
337.117960	0.995009
337.510540	0.993839
337.903056	0.993895
338.295508	0.992516
338.687896	0.994219
339.080220	0.992501
339.472480	0.994210
339.864676	0.993117
340.256807	0.993212
340.648875	0.995070
341.040879	0.993990
341.432818	0.994037
341.824694	0.993079
342.216506	0.995204
342.608253	0.994549
342.999937	0.993729
343.391557	0.994359
343.783113	0.993979
344.174605	0.994314
344.566033	0.994544
344.957397	0.993196
345.348697	0.993515
345.739934	0.994097
346.131106	0.993532
346.522215	0.992783
346.913260	0.992755
347.304241	0.993159
347.695159	0.993170
348.086012	0.992850
348.476802	0.994154
348.867528	0.993684
349.258191	0.992108
349.648789	0.995001
350.039324	0.993201
350.429796	0.993850
350.820203	0.993405
351.210548	0.994505
351.600828	0.993844
351.991045	0.993417
352.381198	0.991363
352.771288	0.993650
353.161314	0.993336
353.551276	0.993956
353.941175	0.994055
354.331010	0.992463
354.720782	0.992879
355.110490	0.993246
355.500135	0.993373
355.889717	0.993990
356.279235	0.992091
356.668689	0.993175
357.058080	0.992893
357.447408	0.994569
357.836672	0.994198
358.225873	0.993372
358.615010	0.993717
359.004084	0.994213
359.393095	0.993784
359.782043	0.992710
360.170927	0.994136
360.559748	0.993585
360.948505	0.993553
361.337199	0.993849
361.725830	0.993350
362.114398	0.993353
362.502903	0.993515
362.891344	0.993997
363.279722	0.993668
363.668037	0.994253
364.056289	0.992174
364.444478	0.994415
364.832603	0.993633
365.220665	0.992781
365.608665	0.993603
365.996601	0.993453
366.384474	0.993916
366.772284	0.993547
367.160031	0.992786
367.547715	0.991367
367.935336	0.994428
368.322893	0.993414
368.710388	0.991634
369.097820	0.993285
369.485189	0.993545
369.872495	0.993186
370.259738	0.991889
370.646918	0.993505
371.034035	0.994654
371.421090	0.993511
371.808081	0.993177
372.195010	0.993749
372.581875	0.993591
372.968678	0.992333
373.355418	0.994214
373.742096	0.992120
374.128710	0.994566
374.515262	0.992530
374.901751	0.993015
375.288177	0.993740
375.674540	0.993507
376.060841	0.993044
376.447079	0.994227
376.833254	0.992975
377.219367	0.993427
377.605417	0.992722
377.991404	0.993379
378.377329	0.992426
378.763191	0.992582
379.148991	0.993656
379.534727	0.993420
379.920402	0.993099
380.306013	0.993637
380.691563	0.994116
381.077049	0.993625
381.462474	0.993488
381.847835	0.993637
382.233134	0.993558
382.618371	0.994154
383.003545	0.992642
383.388657	0.992474
383.773706	0.993386
384.158693	0.993223
384.543618	0.993026
384.928480	0.994483
385.313280	0.992924
385.698017	0.994189
386.082692	0.993133
386.467305	0.994110
386.851856	0.992961
387.236344	0.993709
387.620770	0.992017
388.005133	0.993639
388.389435	0.993682
388.773674	0.993617
389.157851	0.993013
389.541965	0.992519
389.926018	0.992465
390.310008	0.993760
390.693936	0.991472
391.077802	0.991911
391.461606	0.990961
391.845348	0.990749
392.229027	0.991139
392.612645	0.988414
392.996200	0.987791
393.379694	0.984440
393.763125	0.983320
394.146494	0.980946
394.529801	0.975414
394.913047	0.973908
395.296230	0.970134
395.679351	0.966535
396.062410	0.961615
396.445408	0.958146
396.828343	0.952799
397.211217	0.947707
397.594028	0.945192
397.976778	0.937533
398.359466	0.931531
398.742092	0.924389
399.124656	0.921195
399.507158	0.913019
399.889598	0.906046
400.271977	0.898197
400.654294	0.891764
401.036549	0.883685
401.418742	0.877506
401.800874	0.865075
402.182944	0.857326
402.564952	0.845861
402.946898	0.838455
403.328783	0.830384
403.710606	0.825923
404.092367	0.806066
404.474067	0.800184
404.855705	0.791354
405.237282	0.787939
405.618797	0.771559
406.000250	0.760791
406.381642	0.747636
406.762972	0.741203
407.144240	0.732273
407.525447	0.723091
407.906593	0.710874
408.287677	0.699061
408.668700	0.696472
409.049661	0.683762
409.430560	0.673216
409.811399	0.670977
410.192176	0.649539
410.572891	0.648696
410.953545	0.631816
411.334138	0.634580
411.714669	0.623114
412.095139	0.625494
412.475547	0.606821
412.855894	0.602278
413.236180	0.595619
413.616405	0.595077
413.996568	0.581418
414.376670	0.581937
414.756711	0.582220
415.136691	0.574319
415.516609	0.563066
415.896466	0.555901
416.276262	0.548218
416.655997	0.546696
417.035670	0.526040
417.415283	0.515794
417.794834	0.517083
418.174324	0.519231
418.553753	0.526271
418.933121	0.506375
419.312428	0.498325
419.691674	0.501614
420.070859	0.488970
420.449983	0.494764
420.829045	0.483390
421.208047	0.491262
421.586988	0.483762
421.965867	0.481461
422.344686	0.469574
422.723444	0.480702
423.102141	0.496354
423.480777	0.469504
423.859352	0.488942
424.237866	0.466313
424.616319	0.466037
424.994712	0.457018
425.373044	0.467261
425.751314	0.455042
426.129524	0.470433
426.507673	0.455032
426.885762	0.447862
427.263789	0.453009
427.641756	0.462298
428.019662	0.452924
428.397508	0.451837
428.775292	0.456211
429.153016	0.448189
429.530679	0.454450
429.908282	0.447954
430.285824	0.457579
430.663305	0.435673
431.040726	0.456665
431.418086	0.457216
431.795385	0.448459
432.172624	0.447136
432.549802	0.447812
432.926920	0.446806
433.303977	0.446172
433.680974	0.443137
434.057910	0.442042
434.434786	0.441054
434.811601	0.443720
435.188355	0.425973
435.565050	0.435041
435.941683	0.436872
436.318257	0.421212
436.694770	0.421714
437.071222	0.419820
437.447614	0.424039
437.823946	0.430088
438.200218	0.420309
438.576429	0.429956
438.952580	0.423283
439.328670	0.419893
439.704700	0.426227
440.080670	0.427359
440.456580	0.408553
440.832429	0.416343
441.208218	0.427109
441.583947	0.416712
441.959616	0.416294
442.335224	0.420882
442.710773	0.412234
443.086261	0.409682
443.461689	0.423820
443.837057	0.413656
444.212365	0.403699
444.587612	0.410685
444.962800	0.400769
445.337927	0.402197
445.712995	0.427990
446.088002	0.390423
446.462949	0.401255
446.837837	0.405699
447.212664	0.394902
447.587431	0.386152
447.962139	0.356998
448.336786	0.315800
448.711374	0.326311
449.085901	0.370598
449.460369	0.374580
449.834776	0.378378
450.209124	0.357649
450.583412	0.349797
450.957640	0.343163
451.331808	0.354262
451.705917	0.377977
452.079965	0.381811
452.453954	0.370606
452.827883	0.377230
453.201752	0.372381
453.575562	0.383600
453.949311	0.372273
454.323001	0.377928
454.696632	0.374616
455.070202	0.367001
455.443713	0.358894
455.817164	0.353170
456.190556	0.349262
456.563888	0.346129
456.937160	0.343568
457.310373	0.361104
457.683526	0.359662
458.056619	0.365699
458.429653	0.366339
458.802628	0.369157
459.175542	0.363901
459.548398	0.346547
459.921194	0.339066
460.293930	0.338690
460.666607	0.316561
461.039224	0.305068
461.411782	0.300684
461.784280	0.299990
462.156719	0.303783
462.529099	0.308454
462.901419	0.324653
463.273680	0.328688
463.645882	0.328180
464.018024	0.334268
464.390106	0.326949
464.762130	0.311948
465.134094	0.295052
465.505999	0.264259
465.877845	0.234741
466.249631	0.221669
466.621358	0.229066
466.993026	0.243421
467.364634	0.249074
467.736184	0.257811
468.107674	0.266840
468.479105	0.265757
468.850477	0.272609
469.221790	0.279418
469.593043	0.289635
469.964238	0.294233
470.335373	0.293665
470.706449	0.291742
471.077467	0.292592
471.448425	0.254855
471.819324	0.230566
472.190164	0.229934
472.560945	0.258601
472.931667	0.280801
473.302330	0.285319
473.672934	0.296834
474.043479	0.284899
474.413965	0.286781
474.784393	0.290458
475.154761	0.285315
475.525070	0.282431
475.895321	0.288139
476.265513	0.282374
476.635645	0.277828
477.005719	0.277369
477.375734	0.274273
477.745691	0.267652
478.115588	0.263978
478.485427	0.257435
478.855207	0.244265
479.224928	0.227017
479.594591	0.215112
479.964194	0.218284
480.333739	0.219550
480.703226	0.221060
481.072653	0.219832
481.442022	0.215200
481.811333	0.211638
482.180584	0.215158
482.549777	0.220643
482.918912	0.223992
483.287988	0.223618
483.657005	0.223039
484.025964	0.229473
484.394864	0.226793
484.763706	0.227459
485.132489	0.232551
485.501213	0.233257
485.869879	0.231758
486.238487	0.235110
486.607036	0.232638
486.975527	0.237039
487.343959	0.233152
487.712333	0.232400
488.080648	0.233696
488.448905	0.232827
488.817104	0.234033
489.185244	0.228692
489.553326	0.225770
489.921350	0.215308
490.289315	0.197887
490.657222	0.192862
491.025070	0.194319
491.392861	0.196274
491.760593	0.201913
492.128267	0.207476
492.495883	0.212996
492.863440	0.219323
493.230939	0.225343
493.598380	0.227007
493.965763	0.229239
494.333088	0.231506
494.700354	0.232870
495.067563	0.232016
495.434713	0.235224
495.801805	0.233144
496.168839	0.234567
496.535815	0.235733
496.902733	0.235798
497.269593	0.237446
497.636395	0.235091
498.003139	0.235292
498.369825	0.238251
498.736453	0.234733
499.103023	0.236286
499.469535	0.235752
499.835989	0.236136
500.202385	0.237127
500.568723	0.240204
500.935003	0.235503
501.301226	0.239704
501.667390	0.234040
502.033497	0.232377
502.399546	0.235033
502.765537	0.236739
503.131470	0.235053
503.497345	0.231495
503.863163	0.240280
504.228923	0.233403
504.594625	0.232067
504.960269	0.237309
505.325856	0.232690
505.691385	0.236613
506.056856	0.233626
506.422270	0.232961
506.787625	0.235534
507.152924	0.233026
507.518164	0.233143
507.883347	0.235110
508.248472	0.236926
508.613540	0.232048
508.978550	0.234336
509.343503	0.234747
509.708398	0.232711
510.073236	0.230047
510.438016	0.230173
510.802738	0.230990
511.167403	0.230047
511.532010	0.232134
511.896561	0.227393
512.261053	0.226167
512.625488	0.228401
512.989866	0.228592
513.354186	0.228782
513.718449	0.230642
514.082655	0.226797
514.446803	0.229396
514.810894	0.227130
515.174927	0.229633
515.538904	0.228996
515.902822	0.225862
516.266684	0.228461
516.630488	0.229560
516.994235	0.228169
517.357925	0.227194
517.721558	0.225574
518.085133	0.224884
518.448651	0.225078
518.812112	0.227370
519.175516	0.226612
519.538863	0.224574
519.902152	0.225921
520.265385	0.222970
520.628560	0.224962
520.991678	0.225372
521.354739	0.223816
521.717743	0.225212
522.080690	0.225635
522.443580	0.223145
522.806413	0.223865
523.169189	0.223270
523.531908	0.222193
523.894569	0.225607
524.257174	0.225753
524.619722	0.223326
524.982213	0.224672
525.344647	0.223298
525.707025	0.224222
526.069345	0.222406
526.431608	0.223726
526.793815	0.221868
527.155964	0.226333
527.518057	0.225007
527.880093	0.226047
528.242072	0.224536
528.603995	0.226473
528.965860	0.228297
529.327669	0.227067
529.689421	0.227978
530.051117	0.228895
530.412755	0.226277
530.774337	0.228824
531.135862	0.229197
531.497331	0.228482
531.858743	0.231299
532.220098	0.228228
532.581396	0.230608
532.942638	0.231106
533.303824	0.232162
533.664953	0.232077
534.026025	0.233675
534.387040	0.231462
534.747999	0.231360
535.108902	0.230301
535.469748	0.235538
535.830537	0.233195
536.191270	0.233735
536.551947	0.233364
536.912567	0.233321
537.273131	0.235075
537.633638	0.235031
537.994089	0.235410
538.354483	0.236383
538.714821	0.233496
539.075103	0.233349
539.435328	0.234094
539.795497	0.237640
540.155609	0.234295
540.515665	0.232440
540.875665	0.238448
541.235609	0.236636
541.595496	0.237014
541.955328	0.233207
542.315102	0.235980
542.674821	0.237098
543.034483	0.236918
543.394090	0.236868
543.753640	0.238853
544.113134	0.233627
544.472571	0.236811
544.831953	0.233724
545.191278	0.237931
545.550548	0.237497
545.909761	0.234269
546.268918	0.234838
546.628019	0.233038
546.987064	0.235888
547.346053	0.237872
547.704986	0.235497
548.063863	0.235893
548.422684	0.236006
548.781449	0.238009
549.140158	0.235511
549.498811	0.238371
549.857408	0.241671
550.215949	0.236291
550.574434	0.239469
550.932864	0.237482
551.291237	0.235967
551.649555	0.237462
552.007817	0.236953
552.366022	0.238326
552.724173	0.238179
553.082267	0.238612
553.440305	0.235291
553.798288	0.239902
554.156215	0.236231
554.514086	0.237149
554.871902	0.240329
555.229661	0.239262
555.587365	0.239834
555.945014	0.242480
556.302606	0.239354
556.660143	0.241586
557.017625	0.238201
557.375050	0.240836
557.732421	0.237846
558.089735	0.239832
558.446994	0.239646
558.804197	0.238804
559.161345	0.239010
559.518437	0.242313
559.875474	0.239882
560.232455	0.239406
560.589381	0.241053
560.946251	0.240824
561.303065	0.238278
561.659825	0.239987
562.016528	0.241277
562.373177	0.244094
562.729770	0.241416
563.086307	0.243332
563.442789	0.241474
563.799216	0.244099
564.155587	0.242817
564.511904	0.244058
564.868164	0.243964
565.224370	0.243891
565.580520	0.245688
565.936615	0.245541
566.292654	0.248690
566.648638	0.245831
567.004567	0.246128
567.360441	0.247074
567.716260	0.249035
568.072023	0.246620
568.427732	0.247698
568.783385	0.249949
569.138982	0.247904
569.494525	0.247918
569.850013	0.250782
570.205445	0.249238
570.560823	0.251548
570.916145	0.253518
571.271412	0.252097
571.626625	0.253210
571.981782	0.253603
572.336884	0.254826
572.691931	0.254474
573.046923	0.255766
573.401860	0.256540
573.756743	0.258630
574.111570	0.257652
574.466342	0.257919
574.821059	0.257207
575.175722	0.259593
575.530330	0.259673
575.884882	0.259754
576.239380	0.261892
576.593823	0.262396
576.948211	0.261776
577.302544	0.265045
577.656823	0.264564
578.011047	0.264682
578.365216	0.265671
578.719330	0.267556
579.073389	0.267132
579.427394	0.268642
579.781344	0.269242
580.135239	0.270428
580.489080	0.270361
580.842866	0.273138
581.196597	0.273271
581.550273	0.272200
581.903895	0.272862
582.257463	0.271219
582.610975	0.274415
582.964434	0.274013
583.317837	0.276253
583.671186	0.276686
584.024481	0.276518
584.377721	0.279249
584.730906	0.280014
585.084037	0.278929
585.437113	0.280765
585.790135	0.280393
586.143103	0.283452
586.496016	0.284406
586.848874	0.281687
587.201679	0.282341
587.554428	0.285843
587.907124	0.284507
588.259765	0.285443
588.612352	0.286249
588.964884	0.289585
589.317362	0.289479
589.669786	0.289204
590.022155	0.287596
590.374470	0.286934
590.726731	0.288716
591.078937	0.293638
591.431090	0.290293
591.783188	0.294264
592.135232	0.295036
592.487222	0.294620
592.839157	0.292855
593.191038	0.295288
593.542866	0.297134
593.894639	0.300687
594.246358	0.298434
594.598022	0.298418
594.949633	0.301728
595.301190	0.302477
595.652692	0.301661
596.004141	0.297966
596.355535	0.305808
596.706876	0.306494
597.058162	0.308908
597.409395	0.306124
597.760573	0.303760
598.111698	0.307009
598.462768	0.307416
598.813785	0.308820
599.164748	0.310157
599.515657	0.310309
599.866511	0.313727
600.217312	0.308964
600.568060	0.314480
600.918753	0.310710
601.269392	0.311405
601.619978	0.315197
601.970510	0.312400
602.320988	0.312782
602.671412	0.310221
603.021783	0.312754
603.372100	0.314232
603.722363	0.314201
604.072572	0.314693
604.422728	0.314669
604.772830	0.316530
605.122878	0.316491
605.472872	0.316795
605.822813	0.315221
606.172701	0.317878
606.522534	0.314750
606.872314	0.315355
607.222041	0.316014
607.571714	0.314585
607.921333	0.315767
608.270899	0.315362
608.620411	0.312314
608.969870	0.315873
609.319276	0.316349
609.668627	0.315945
610.017926	0.314558
610.367171	0.313243
610.716362	0.313574
611.065500	0.314268
611.414585	0.312958
611.763616	0.313298
612.112594	0.313755
612.461518	0.313302
612.810389	0.310783
613.159207	0.313196
613.507971	0.315284
613.856682	0.310777
614.205340	0.312593
614.553945	0.309121
614.902496	0.312949
615.250994	0.311015
615.599439	0.312068
615.947830	0.311057
616.296169	0.312337
616.644454	0.311622
616.992686	0.311626
617.340864	0.309450
617.688990	0.312900
618.037063	0.309908
618.385082	0.311562
618.733048	0.308613
619.080961	0.311127
619.428821	0.310104
619.776628	0.309988
620.124382	0.311680
620.472083	0.312094
620.819731	0.311736
621.167326	0.315289
621.514868	0.315313
621.862357	0.319307
622.209793	0.318987
622.557176	0.321240
622.904506	0.322376
623.251783	0.324704
623.599007	0.326788
623.946179	0.326413
624.293297	0.328480
624.640363	0.332296
624.987376	0.332823
625.334336	0.335142
625.681243	0.337451
626.028097	0.338287
626.374899	0.339272
626.721647	0.339876
627.068343	0.342713
627.414987	0.343954
627.761577	0.345973
628.108115	0.344082
628.454600	0.349563
628.801032	0.346720
629.147412	0.348904
629.493739	0.349021
629.840014	0.352213
630.186236	0.349935
630.532405	0.355436
630.878521	0.352474
631.224585	0.354622
631.570597	0.358771
631.916556	0.356695
632.262462	0.357150
632.608316	0.359024
632.954117	0.359889
633.299866	0.360386
633.645562	0.361380
633.991206	0.366134
634.336797	0.368884
634.682336	0.370817
635.027823	0.372413
635.373257	0.372899
635.718639	0.376571
636.063968	0.375710
636.409245	0.381891
636.754470	0.382029
637.099642	0.384257
637.444762	0.388060
637.789829	0.387009
638.134845	0.390336
638.479808	0.391392
638.824719	0.390875
639.169577	0.395187
639.514383	0.393915
639.859137	0.397921
640.203839	0.398035
640.548489	0.398993
640.893086	0.399833
641.237632	0.401271
641.582125	0.400208
641.926566	0.401700
642.270955	0.401704
642.615292	0.402261
642.959576	0.401127
643.303809	0.401858
643.647990	0.401269
643.992118	0.402268
644.336195	0.405422
644.680219	0.403624
645.024192	0.404936
645.368112	0.398202
645.711981	0.397310
646.055797	0.392506
646.399562	0.394781
646.743274	0.386971
647.086935	0.384177
647.430544	0.384269
647.774101	0.383440
648.117606	0.382799
648.461059	0.383294
648.804460	0.385732
649.147810	0.390607
649.491108	0.392618
649.834354	0.394355
650.177548	0.399717
650.520690	0.404903
650.863781	0.405950
651.206820	0.405677
651.549807	0.410452
651.892742	0.414372
652.235626	0.413643
652.578458	0.415219
652.921238	0.420459
653.263967	0.418555
653.606644	0.422342
653.949269	0.422416
654.291843	0.426269
654.634365	0.422689
654.976836	0.425862
655.319255	0.425949
655.661622	0.427983
656.003938	0.427608
656.346203	0.430815
656.688416	0.428611
657.030577	0.432436
657.372687	0.433933
657.714746	0.435052
658.056753	0.431799
658.398708	0.435734
658.740612	0.436585
659.082465	0.432719
659.424266	0.433404
659.766016	0.433099
660.107715	0.435681
660.449362	0.434501
660.790958	0.435059
661.132503	0.435573
661.473996	0.433006
661.815438	0.434241
662.156829	0.434037
662.498168	0.435460
662.839456	0.436923
663.180693	0.434044
663.521879	0.433939
663.863013	0.435271
664.204097	0.433898
664.545129	0.430300
664.886110	0.430736
665.227040	0.428146
665.567918	0.431277
665.908746	0.428759
666.249522	0.428391
666.590248	0.429583
666.930922	0.427631
667.271545	0.426657
667.612118	0.426326
667.952639	0.428497
668.293109	0.426779
668.633528	0.429944
668.973896	0.429447
669.314213	0.429969
669.654480	0.431724
669.994695	0.432331
670.334859	0.433226
670.674973	0.433083
671.015035	0.433190
671.355047	0.432860
671.695008	0.434411
672.034918	0.436171
672.374777	0.435432
672.714585	0.436452
673.054342	0.436530
673.394049	0.436871
673.733705	0.434283
674.073310	0.435700
674.412864	0.438573
674.752368	0.439288
675.091820	0.439381
675.431223	0.443529
675.770574	0.443444
676.109875	0.446472
676.449125	0.446491
676.788324	0.448630
677.127473	0.453729
677.466571	0.453569
677.805619	0.455174
678.144616	0.456686
678.483562	0.458232
678.822458	0.460477
679.161303	0.461966
679.500098	0.462182
679.838842	0.463671
680.177535	0.463598
680.516179	0.461993
680.854771	0.461300
681.193314	0.454240
681.531805	0.445542
681.870247	0.434453
682.208638	0.426936
682.546978	0.425600
682.885268	0.427767
683.223508	0.433871
683.561697	0.437634
683.899836	0.440319
684.237925	0.443886
684.575963	0.446166
684.913951	0.449201
685.251889	0.445387
685.589776	0.447061
685.927614	0.448904
686.265401	0.443915
686.603137	0.445431
686.940824	0.439149
687.278460	0.437503
687.616046	0.436549
687.953582	0.431703
688.291068	0.433451
688.628504	0.428534
688.965889	0.431004
689.303224	0.435340
689.640510	0.439132
689.977745	0.444770
690.314930	0.452596
690.652065	0.456845
690.989150	0.464832
691.326185	0.470863
691.663170	0.475957
692.000105	0.482689
692.336990	0.490032
692.673825	0.492159
693.010610	0.499191
693.347345	0.504821
693.684030	0.505849
694.020665	0.511216
694.357251	0.519546
694.693786	0.519282
695.030272	0.523426
695.366707	0.526896
695.703093	0.530462
696.039429	0.527731
696.375716	0.530554
696.711952	0.532438
697.048139	0.534783
697.384276	0.535865
697.720363	0.534698
698.056400	0.533993
698.392388	0.539851
698.728326	0.543052
699.064214	0.545075
699.400053	0.546565
699.735842	0.549782
700.071581	0.552596
700.407270	0.555610
700.742910	0.557942
701.078501	0.564834
701.414042	0.565024
701.749533	0.568766
702.084974	0.576359
702.420366	0.569100
702.755709	0.576740
703.091002	0.584666
703.426246	0.578480
703.761440	0.583831
704.096584	0.588481
704.431679	0.585428
704.766725	0.586965
705.101721	0.588915
705.436668	0.585129
705.771565	0.592036
706.106413	0.588789
706.441212	0.584576
706.775961	0.582804
707.110661	0.586039
707.445311	0.581936
707.779913	0.578941
708.114465	0.578486
708.448967	0.573939
708.783421	0.567234
709.117825	0.561301
709.452180	0.561388
709.786485	0.555052
710.120742	0.544999
710.454949	0.546806
710.789107	0.538958
711.123216	0.530543
711.457275	0.531441
711.791286	0.522482
712.125247	0.521765
712.459159	0.532132
712.793023	0.524687
713.126837	0.529359
713.460602	0.529676
713.794318	0.538991
714.127985	0.537326
714.461602	0.547714
714.795171	0.550923
715.128691	0.558261
715.462162	0.566303
715.795584	0.571558
716.128957	0.574932
716.462281	0.581146
716.795556	0.584832
717.128782	0.590107
717.461960	0.599859
717.795088	0.597761
718.128167	0.603844
718.461198	0.613667
718.794180	0.613460
719.127113	0.616381
719.459997	0.620587
719.792833	0.625886
720.125619	0.626998
720.458357	0.633111
720.791046	0.632577
721.123686	0.636058
721.456278	0.643429
721.788821	0.640225
722.121315	0.645030
722.453761	0.648455
722.786158	0.646385
723.118506	0.643271
723.450805	0.650576
723.783056	0.646976
724.115259	0.643526
724.447412	0.643623
724.779518	0.645357
725.111574	0.643993
725.443582	0.639605
725.775542	0.642050
726.107453	0.634120
726.439315	0.634294
726.771129	0.631997
727.102895	0.625108
727.434612	0.618325
727.766281	0.616443
728.097901	0.615945
728.429473	0.615644
728.760996	0.613463
729.092471	0.614225
729.423897	0.617626
729.755276	0.617546
730.086606	0.616537
730.417887	0.611556
730.749120	0.601981
731.080305	0.593419
731.411442	0.589189
731.742530	0.594186
732.073570	0.592703
732.404562	0.585406
732.735506	0.587045
733.066401	0.591564
733.397249	0.600772
733.728048	0.611842
734.058798	0.624643
734.389501	0.635602
734.720156	0.644819
735.050762	0.653589
735.381320	0.653359
735.711831	0.663610
736.042293	0.667373
736.372707	0.663978
736.703073	0.668851
737.033391	0.670833
737.363661	0.667644
737.693883	0.662365
738.024056	0.662263
738.354182	0.662605
738.684260	0.651357
739.014290	0.648034
739.344272	0.648270
739.674207	0.641882
740.004093	0.640619
740.333931	0.641885
740.663722	0.642494
740.993464	0.642442
741.323159	0.645710
741.652806	0.651299
741.982405	0.655951
742.311956	0.661018
742.641460	0.662403
742.970915	0.666181
743.300323	0.674120
743.629683	0.680049
743.958996	0.682299
744.288260	0.686771
744.617477	0.692982
744.946647	0.694164
745.275768	0.699941
745.604842	0.699555
745.933869	0.709546
746.262847	0.710064
746.591778	0.703097
746.920662	0.710060
747.249498	0.715890
747.578286	0.706884
747.907027	0.702580
748.235720	0.704222
748.564365	0.698909
748.892963	0.699078
749.221514	0.702038
749.550017	0.706880
749.878473	0.706236
750.206881	0.712230
750.535242	0.714831
750.863555	0.714770
751.191821	0.715364
751.520039	0.718496
751.848210	0.723369
752.176334	0.715850
752.504411	0.715003
752.832440	0.722410
753.160421	0.726712
753.488356	0.725551
753.816243	0.722558
754.144082	0.730898
754.471875	0.734963
754.799620	0.730165
755.127318	0.731348
755.454969	0.731300
755.782572	0.730819
756.110129	0.735448
756.437638	0.738109
756.765100	0.734230
757.092515	0.732419
757.419882	0.731570
757.747203	0.737292
758.074477	0.735307
758.401703	0.733140
758.728882	0.727992
759.056014	0.727193
759.383099	0.727061
759.710138	0.727396
760.037129	0.724661
760.364073	0.717936
760.690970	0.720831
761.017820	0.726258
761.344623	0.722135
761.671379	0.712495
761.998088	0.701455
762.324751	0.677910
762.651366	0.637051
762.977935	0.569111
763.304456	0.516655
763.630931	0.507378
763.957359	0.546907
764.283740	0.590914
764.610074	0.618516
764.936362	0.649744
765.262602	0.676640
765.588796	0.697307
765.914943	0.716228
766.241044	0.733240
766.567097	0.740563
766.893104	0.750715
767.219064	0.756264
767.544978	0.763576
767.870845	0.776369
768.196665	0.780611
768.522438	0.778612
768.848165	0.779424
769.173846	0.787795
769.499479	0.792525
769.825066	0.796981
770.150607	0.801639
770.476101	0.797433
770.801548	0.797369
771.126949	0.809191
771.452303	0.812413
771.777611	0.812694
772.102872	0.811698
772.428087	0.816612
772.753256	0.820143
773.078378	0.822304
773.403453	0.830879
773.728482	0.835955
774.053465	0.828694
774.378401	0.832130
774.703291	0.840620
775.028135	0.840127
775.352932	0.842707
775.677683	0.845483
776.002388	0.845188
776.327046	0.844741
776.651658	0.847416
776.976224	0.851382
777.300743	0.852074
777.625216	0.853676
777.949643	0.856392
778.274024	0.855801
778.598359	0.857446
778.922647	0.855019
779.246889	0.856709
779.571086	0.860392
779.895236	0.862979
780.219339	0.859609
780.543397	0.857285
780.867409	0.855566
781.191374	0.857162
781.515294	0.858859
781.839167	0.858432
782.162995	0.862076
782.486776	0.858767
782.810511	0.858553
783.134201	0.862473
783.457844	0.861550
783.781441	0.862978
784.104993	0.868937
784.428498	0.870135
784.751958	0.865571
785.075372	0.867377
785.398739	0.871176
785.722061	0.868026
786.045337	0.862993
786.368568	0.868226
786.691752	0.872037
787.014891	0.856193
787.337983	0.848225
787.661030	0.840209
787.984031	0.822755
788.306987	0.810000
788.629897	0.811155
788.952760	0.815556
789.275579	0.820129
789.598351	0.834804
789.921078	0.847941
790.243759	0.850427
790.566395	0.855810
790.888984	0.863199
791.211529	0.866916
791.534027	0.870971
791.856480	0.873477
792.178888	0.878038
792.501249	0.880950
792.823566	0.881894
793.145836	0.881816
793.468062	0.884135
793.790241	0.883052
794.112375	0.882890
794.434464	0.877546
794.756507	0.876969
795.078505	0.877026
795.400457	0.871407
795.722364	0.858585
796.044226	0.851613
796.366042	0.851449
796.687812	0.854193
797.009538	0.851012
797.331218	0.852541
797.652852	0.859476
797.974442	0.863250
798.295986	0.862395
798.617484	0.865029
798.938938	0.869033
799.260346	0.874903
799.581709	0.876566
799.903026	0.878872
800.224299	0.879565
800.545526	0.883148
800.866708	0.887810
801.187845	0.891596
801.508936	0.890788
801.829983	0.888900
802.150984	0.891620
802.471940	0.896332
802.792851	0.896818
803.113717	0.897113
803.434538	0.894760
803.755314	0.897273
804.076045	0.899418
804.396731	0.898772
804.717372	0.899176
805.037967	0.900872
805.358518	0.899053
805.679024	0.895584
805.999485	0.895850
806.319901	0.895764
806.640272	0.898108
806.960598	0.895939
807.280879	0.891838
807.601115	0.890530
807.921306	0.893554
808.241453	0.894170
808.561554	0.892969
808.881611	0.893129
809.201623	0.895402
809.521590	0.895460
809.841513	0.896194
810.161390	0.895962
810.481223	0.896161
810.801011	0.899188
811.120755	0.902460
811.440453	0.900580
811.760107	0.899815
812.079716	0.900292
812.399281	0.902652
812.718801	0.905748
813.038276	0.906473
813.357707	0.906006
813.677093	0.902791
813.996434	0.906375
814.315731	0.907681
814.634983	0.908474
814.954191	0.906529
815.273354	0.903469
815.592473	0.899797
815.911547	0.900017
816.230577	0.897754
816.549562	0.894701
816.868502	0.895887
817.187399	0.891631
817.506250	0.887077
817.825058	0.889040
818.143821	0.884801
818.462539	0.880020
818.781213	0.872536
819.099843	0.861040
819.418429	0.844685
819.736970	0.827500
820.055466	0.807565
820.373919	0.782860
820.692327	0.749519
821.010691	0.714563
821.329011	0.636650
821.647286	0.520248
821.965517	0.406523
822.283704	0.363955
822.601847	0.364410
822.919945	0.400796
823.237999	0.434128
823.556010	0.481421
823.873976	0.537567
824.191897	0.588505
824.509775	0.631711
824.827609	0.676964
825.145398	0.699247
825.463144	0.702317
825.780845	0.684850
826.098502	0.666509
826.416116	0.620570
826.733685	0.576166
827.051210	0.567424
827.368692	0.582617
827.686129	0.619941
828.003522	0.673462
828.320872	0.720149
828.638177	0.764556
828.955439	0.797805
829.272656	0.819778
829.589830	0.837687
829.906960	0.853841
830.224046	0.864745
830.541088	0.875936
830.858086	0.879784
831.175041	0.886269
831.491952	0.886596
831.808819	0.882862
832.125642	0.875599
832.442421	0.860511
832.759157	0.838175
833.075849	0.791882
833.392497	0.728675
833.709101	0.687964
834.025662	0.696826
834.342179	0.728753
834.658653	0.767626
834.975083	0.803700
835.291469	0.830525
835.607811	0.852770
835.924110	0.868548
836.240366	0.886087
836.556578	0.899540
836.872746	0.908231
837.188871	0.913712
837.504952	0.920075
837.820990	0.922299
838.136984	0.927097
838.452935	0.929144
838.768842	0.931049
839.084706	0.924256
839.400526	0.898155
839.716303	0.857455
840.032037	0.834979
840.347727	0.838877
840.663373	0.857081
840.978977	0.878415
841.294537	0.901226
841.610054	0.917576
841.925527	0.925008
842.240957	0.932071
842.556344	0.939580
842.871687	0.946534
843.186987	0.949602
843.502244	0.949110
843.817458	0.951319
844.132629	0.954277
844.447756	0.959135
844.762840	0.959307
845.077881	0.958859
845.392879	0.959782
845.707833	0.962380
846.022745	0.963168
846.337613	0.964505
846.652438	0.964447
846.967221	0.964018
847.281960	0.964188
847.596656	0.967253
847.911309	0.965554
848.225919	0.966793
848.540485	0.967997
848.855009	0.967493
849.169490	0.967526
849.483928	0.967276
849.798323	0.969196
850.112675	0.968974
850.426984	0.969182
850.741251	0.970642
851.055474	0.969567
851.369654	0.967462
851.683792	0.969520
851.997887	0.969013
852.311938	0.969778
852.625947	0.968851
852.939914	0.967048
853.253837	0.969460
853.567718	0.969843
853.881555	0.970940
854.195350	0.966955
854.509103	0.969257
854.822812	0.969320
855.136479	0.970109
855.450103	0.969616
855.763685	0.967412
856.077224	0.968479
856.390720	0.969545
856.704173	0.970512
857.017584	0.968852
857.330953	0.966754
857.644278	0.967326
857.957561	0.967383
858.270802	0.967738
858.584000	0.967527
858.897155	0.967091
859.210268	0.967398
859.523339	0.968450
859.836367	0.970034
860.149352	0.969827
860.462295	0.967213
860.775195	0.968364
861.088054	0.968817
861.400869	0.968694
861.713642	0.970251
862.026373	0.969999
862.339062	0.970288
862.651708	0.967318
862.964312	0.967840
863.276873	0.968174
863.589392	0.968037
863.901869	0.965424
864.214303	0.964506
864.526696	0.963041
864.839045	0.962724
865.151353	0.961178
865.463619	0.961792
865.775842	0.961549
866.088023	0.961181
866.400162	0.961481
866.712258	0.962064
867.024313	0.962005
867.336325	0.962306
867.648296	0.962997
867.960224	0.961914
868.272110	0.961670
868.583954	0.963918
868.895755	0.963786
869.207515	0.961192
869.519233	0.959406
869.830909	0.961091
870.142542	0.961167
870.454134	0.960516
870.765684	0.958387
871.077191	0.957315
871.388657	0.958708
871.700081	0.957976
872.011463	0.958310
872.322803	0.956840
872.634101	0.956301
872.945357	0.954328
873.256571	0.953188
873.567744	0.951891
873.878874	0.953055
874.189963	0.951427
874.501010	0.950894
874.812015	0.949471
875.122979	0.949931
875.433900	0.953268
875.744780	0.952640
876.055618	0.949910
876.366415	0.949214
876.677169	0.948803
876.987882	0.950438
877.298554	0.950149
877.609183	0.947212
877.919771	0.944204
878.230317	0.942038
878.540822	0.939115
878.851285	0.933600
879.161707	0.925923
879.472087	0.913834
879.782425	0.897183
880.092722	0.863255
880.402977	0.811168
880.713191	0.748840
881.023363	0.689459
881.333494	0.654945
881.643583	0.627256
881.953631	0.626974
882.263637	0.655285
882.573602	0.696020
882.883526	0.721481
883.193408	0.745282
883.503248	0.768006
883.813048	0.795605
884.122806	0.825112
884.432522	0.849261
884.742197	0.868320
885.051831	0.879634
885.361424	0.889865
885.670975	0.901410
885.980485	0.911607
886.289954	0.918566
886.599382	0.923013
886.908768	0.927529
887.218113	0.932838
887.527417	0.937672
887.836680	0.941569
888.145901	0.942994
888.455082	0.944936
888.764221	0.949408
889.073319	0.951815
889.382376	0.950963
889.691392	0.952319
890.000366	0.952161
890.309300	0.952776
890.618193	0.951147
890.927044	0.950058
891.235855	0.950359
891.544625	0.950083
891.853353	0.950458
892.162041	0.949174
892.470687	0.941539
892.779293	0.937535
893.087858	0.934110
893.396381	0.926167
893.704864	0.911558
894.013306	0.887761
894.321707	0.861144
894.630068	0.845509
894.938387	0.840248
895.246665	0.841886
895.554903	0.855225
895.863100	0.868646
896.171256	0.885286
896.479371	0.904708
896.787446	0.917359
897.095480	0.924111
897.403473	0.928136
897.711425	0.930757
898.019336	0.939017
898.327207	0.942937
898.635038	0.943632
898.942827	0.944334
899.250576	0.947989
899.558284	0.952610
899.865952	0.952741
900.173579	0.954875
900.481165	0.954357
900.788711	0.959403
901.096216	0.960926
901.403681	0.960634
901.711105	0.962724
902.018489	0.963580
902.325832	0.962468
902.633135	0.960552
902.940397	0.954557
903.247619	0.942329
903.554800	0.916252
903.861941	0.876729
904.169041	0.841308
904.476101	0.822321
904.783121	0.823408
905.090100	0.840590
905.397039	0.862335
905.703938	0.884790
906.010796	0.904214
906.317614	0.922203
906.624391	0.934120
906.931129	0.942344
907.237826	0.950998
907.544483	0.958659
907.851099	0.962129
908.157675	0.967365
908.464211	0.969539
908.770707	0.972290
909.077163	0.972384
909.383578	0.973610
909.689954	0.974132
909.996289	0.974819
910.302584	0.976846
910.608839	0.979648
910.915054	0.978048
911.221229	0.977339
911.527363	0.976164
911.833458	0.975825
912.139513	0.976183
912.445527	0.974537
912.751502	0.974003
913.057436	0.971456
913.363331	0.968636
913.669186	0.965080
913.975000	0.961138
914.280775	0.954757
914.586510	0.947550
914.892205	0.933928
915.197859	0.912705
915.503475	0.885340
915.809050	0.864939
916.114585	0.858043
916.420081	0.856615
916.725536	0.852746
917.030952	0.861554
917.336328	0.874704
917.641665	0.889490
917.946961	0.906278
918.252218	0.916502
918.557435	0.925439
918.862612	0.936172
919.167750	0.941134
919.472848	0.946227
919.777906	0.951870
920.082925	0.958035
920.387904	0.960390
920.692843	0.962530
920.997743	0.963686
921.302603	0.967130
921.607423	0.969005
921.912204	0.971261
922.216946	0.971421
922.521647	0.971821
922.826310	0.974016
923.130932	0.976161
923.435516	0.978405
923.740059	0.979523
924.044564	0.977695
924.349028	0.979337
924.653454	0.982504
924.957840	0.983735
925.262186	0.983662
925.566493	0.983508
925.870761	0.983832
926.174989	0.986178
926.479178	0.987465
926.783328	0.988171
927.087438	0.987021
927.391509	0.986834
927.695541	0.988704
927.999533	0.989348
928.303486	0.988714
928.607400	0.990364
928.911275	0.988973
929.215110	0.989236
929.518906	0.989565
929.822663	0.989881
930.126381	0.991939
930.430060	0.989129
930.733699	0.989750
931.037299	0.989478
931.340861	0.990621
931.644383	0.988856
931.947866	0.989008
932.251309	0.990152
932.554714	0.989860
932.858080	0.989611
933.161407	0.989043
933.464694	0.990831
933.767943	0.989752
934.071153	0.990682
934.374323	0.991418
934.677455	0.992366
934.980548	0.991487
935.283602	0.990919
935.586617	0.991433
935.889593	0.990023
936.192530	0.990677
936.495428	0.989527
936.798287	0.991216
937.101108	0.990121
937.403890	0.989102
937.706632	0.988404
938.009336	0.986063
938.312002	0.986264
938.614628	0.983071
938.917216	0.982966
939.219765	0.980827
939.522275	0.981126
939.824747	0.983099
940.127179	0.982211
940.429573	0.983815
940.731929	0.983343
941.034246	0.982748
941.336524	0.985354
941.638763	0.985333
941.940964	0.985219
942.243126	0.985722
942.545250	0.986579
942.847335	0.987074
943.149381	0.987318
943.451389	0.987947
943.753359	0.987783
944.055290	0.990130
944.357182	0.988613
944.659036	0.987595
944.960851	0.989841
945.262628	0.988189
945.564367	0.990679
945.866067	0.989637
946.167729	0.989464
946.469352	0.989116
946.770937	0.987833
947.072484	0.990942
947.373992	0.988596
947.675462	0.989617
947.976893	0.989233
948.278286	0.990134
948.579641	0.990954
948.880958	0.988846
949.182236	0.990110
949.483476	0.991284
949.784678	0.990307
950.085841	0.991191
950.386967	0.989923
950.688054	0.989954
950.989103	0.990757
951.290114	0.988117
951.591087	0.989025
951.892021	0.989001
952.192917	0.989419
952.493776	0.987150
952.794596	0.987823
953.095378	0.987339
953.396122	0.988816
953.696828	0.986675
953.997496	0.990022
954.298126	0.990291
954.598718	0.990955
954.899272	0.991151
955.199788	0.990257
955.500266	0.992307
955.800706	0.993486
956.101108	0.992142
956.401472	0.993727
956.701798	0.992938
957.002087	0.992974
957.302337	0.992087
957.602550	0.994543
957.902724	0.995034
958.202861	0.995342
958.502960	0.994458
958.803022	0.993187
959.103045	0.995871
959.403031	0.994306
959.702979	0.995380
960.002889	0.995051
960.302762	0.993785
960.602596	0.996516
960.902393	0.993813
961.202153	0.994914
961.501875	0.996172
961.801559	0.995409
962.101205	0.995031
962.400814	0.996086
962.700385	0.995279
962.999918	0.995695
963.299414	0.996646
963.598873	0.995017
963.898293	0.996301
964.197677	0.995864
964.497022	0.995506
964.796331	0.997530
965.095601	0.995890
965.394835	0.995539
965.694030	0.997226
965.993189	0.997341
966.292309	0.995900
966.591393	0.996106
966.890439	0.996483
967.189447	0.996643
967.488419	0.996270
967.787353	0.996087
968.086249	0.995461
968.385108	0.996327
968.683930	0.997217
968.982714	0.997689
969.281462	0.996303
969.580172	0.996153
969.878844	0.997386
970.177480	0.995898
970.476078	0.996504
970.774639	0.997453
971.073162	0.997247
971.371649	0.996192
971.670098	0.994535
971.968510	0.996921
972.266885	0.996652
972.565223	0.996236
972.863524	0.995560
973.161788	0.996902
973.460014	0.996442
973.758204	0.995740
974.056356	0.997248
974.354471	0.993793
974.652550	0.996268
974.950591	0.996728
975.248595	0.995300
975.546563	0.997508
975.844493	0.997918
976.142386	0.997204
976.440243	0.996983
976.738062	0.997251
977.035845	0.996490
977.333590	0.997119
977.631299	0.996437
977.928971	0.996585
978.226606	0.996169
978.524204	0.995885
978.821765	0.998424
979.119290	0.995966
979.416777	0.995443
979.714228	0.997361
980.011642	0.996189
980.309020	0.996642
980.606360	0.996807
980.903664	0.997384
981.200931	0.996335
981.498162	0.994078
981.795356	0.994937
982.092513	0.994201
982.389633	0.995080
982.686717	0.990732
982.983764	0.990850
983.280775	0.990168
983.577749	0.989866
983.874686	0.991829
984.171587	0.990527
984.468451	0.993594
984.765279	0.994498
985.062070	0.994270
985.358824	0.994734
985.655543	0.994487
985.952224	0.995705
986.248869	0.997310
986.545478	0.997031
986.842050	0.997935
987.138586	0.995784
987.435086	0.997380
987.731549	0.999490
988.027975	0.997776
988.324366	0.997935
988.620719	0.997261
988.917037	0.995565
989.213318	0.997552
989.509563	0.998882
989.805772	0.999257
990.101944	0.997619
990.398080	0.997389
990.694180	0.997439
990.990244	0.997053
991.286271	0.997111
991.582262	0.997787
991.878217	0.996982
992.174136	0.998158
992.470019	0.999066
992.765865	0.997698
993.061676	0.997380
993.357450	0.998081
993.653188	0.996339
993.948890	0.997369
994.244556	0.997817
994.540186	0.996164
994.835780	0.996828
995.131337	0.997019
995.426859	0.995742
995.722345	0.997807
996.017795	0.995432
996.313208	0.995850
996.608586	0.994803
996.903928	0.996077
997.199234	0.996244
997.494504	0.996880
997.789738	0.995512
998.084936	0.997199
998.380099	0.997181
998.675225	0.998372
998.970316	0.997789
999.265371	0.998103
999.560390	0.998572
999.855373	0.999338
1000.150320	0.997620
1000.445232	0.998155
1000.740108	0.997511
1001.034948	0.997975
1001.329752	0.999258
1001.624521	0.999092
1001.919254	0.997066
1002.213951	0.996803
1002.508613	0.998124
1002.803239	0.997958
1003.097829	0.998430
1003.392384	0.999096
1003.686903	0.997987
1003.981386	0.997023
1004.275834	0.998388
1004.570246	0.998755
1004.864623	0.998302
1005.158964	0.999476
1005.453270	0.997872
1005.747540	0.997848
1006.041775	0.998075
1006.335974	0.999765
1006.630138	0.999253
1006.924266	0.999249
1007.218359	1.000415
1007.512416	0.998693
1007.806438	0.998994
1008.100425	0.999192
1008.394376	0.999125
1008.688292	0.998835
1008.982172	0.999137
1009.276017	0.999422
1009.569827	0.999295
1009.863602	0.998378
1010.157341	0.999966
1010.451045	0.996950
1010.744714	0.999579
1011.038347	0.998807
1011.331945	0.999027
1011.625508	0.998957
1011.919036	0.999574
1012.212528	0.998367
1012.505986	0.998415
1012.799408	0.998570
1013.092795	0.999885
1013.386147	0.999399
1013.679464	0.999055
1013.972745	0.996842
1014.265992	0.996886
1014.559204	0.998230
1014.852380	0.998212
1015.145521	0.998702
1015.438628	0.998821
1015.731699	0.998370
1016.024736	0.998993
1016.317737	0.998517
1016.610703	0.998059
1016.903635	0.999259
1017.196531	0.997664
1017.489393	0.998853
1017.782219	0.998445
1018.075011	0.998139
1018.367768	0.999830
1018.660490	0.999464
1018.953177	0.999464
1019.245829	0.999464
