Dividing Wavelength (nm)	Counts (n)	Blue Motor Position (mm): 0.000000	Red Motor Position (mm): 17.900000	
326.493990	1.000960
326.888308	1.000960
327.282561	1.000960
327.676750	1.000221
328.070874	0.998996
328.464933	1.001152
328.858929	0.999965
329.252859	1.000233
329.646726	1.000320
330.040528	1.001638
330.434265	1.000405
330.827938	1.000858
331.221547	1.001487
331.615091	0.999954
332.008571	1.000738
332.401986	1.000730
332.795338	1.002240
333.188625	0.998403
333.581847	1.000303
333.975006	0.999320
334.368100	1.000563
334.761129	1.000684
335.154095	1.000726
335.546996	0.997478
335.939833	0.994313
336.332606	0.993876
336.725315	0.996061
337.117960	0.995926
337.510540	0.995104
337.903056	0.994917
338.295508	0.993634
338.687896	0.994876
339.080220	0.994816
339.472480	0.995123
339.864676	0.993958
340.256807	0.995757
340.648875	0.995633
341.040879	0.995751
341.432818	0.994856
341.824694	0.994709
342.216506	0.995516
342.608253	0.994536
342.999937	0.994816
343.391557	0.994071
343.783113	0.994596
344.174605	0.994642
344.566033	0.995801
344.957397	0.992903
345.348697	0.993918
345.739934	0.994589
346.131106	0.995001
346.522215	0.994928
346.913260	0.994551
347.304241	0.994373
347.695159	0.994395
348.086012	0.994269
348.476802	0.995658
348.867528	0.995427
349.258191	0.993822
349.648789	0.995763
350.039324	0.994130
350.429796	0.995509
350.820203	0.994855
351.210548	0.994132
351.600828	0.995742
351.991045	0.995076
352.381198	0.993802
352.771288	0.994156
353.161314	0.995111
353.551276	0.995922
353.941175	0.994001
354.331010	0.994297
354.720782	0.994070
355.110490	0.994861
355.500135	0.995171
355.889717	0.993387
356.279235	0.994630
356.668689	0.994581
357.058080	0.994081
357.447408	0.995638
357.836672	0.994618
358.225873	0.994791
358.615010	0.995856
359.004084	0.994704
359.393095	0.994972
359.782043	0.994286
360.170927	0.995842
360.559748	0.995453
360.948505	0.994146
361.337199	0.995026
361.725830	0.994462
362.114398	0.994558
362.502903	0.995670
362.891344	0.996228
363.279722	0.993625
363.668037	0.993786
364.056289	0.995095
364.444478	0.995623
364.832603	0.994027
365.220665	0.993801
365.608665	0.994530
365.996601	0.994693
366.384474	0.994525
366.772284	0.995168
367.160031	0.993762
367.547715	0.991835
367.935336	0.995462
368.322893	0.993130
368.710388	0.992447
369.097820	0.995183
369.485189	0.994411
369.872495	0.993554
370.259738	0.992595
370.646918	0.995224
371.034035	0.995132
371.421090	0.994988
371.808081	0.993964
372.195010	0.995412
372.581875	0.996113
372.968678	0.994623
373.355418	0.993631
373.742096	0.994084
374.128710	0.995832
374.515262	0.994390
374.901751	0.996643
375.288177	0.995328
375.674540	0.995261
376.060841	0.994764
376.447079	0.993817
376.833254	0.995177
377.219367	0.994489
377.605417	0.996276
377.991404	0.995216
378.377329	0.994122
378.763191	0.995841
379.148991	0.995689
379.534727	0.995607
379.920402	0.995194
380.306013	0.995540
380.691563	0.996058
381.077049	0.995053
381.462474	0.995632
381.847835	0.995763
382.233134	0.994744
382.618371	0.994924
383.003545	0.995199
383.388657	0.994433
383.773706	0.996090
384.158693	0.995764
384.543618	0.994912
384.928480	0.996484
385.313280	0.994686
385.698017	0.996249
386.082692	0.996047
386.467305	0.996345
386.851856	0.995094
387.236344	0.995468
387.620770	0.994742
388.005133	0.995702
388.389435	0.996111
388.773674	0.995973
389.157851	0.994880
389.541965	0.995220
389.926018	0.994773
390.310008	0.996526
390.693936	0.994769
391.077802	0.995598
391.461606	0.995534
391.845348	0.995355
392.229027	0.996360
392.612645	0.995389
392.996200	0.996186
393.379694	0.995416
393.763125	0.995361
394.146494	0.996212
394.529801	0.994991
394.913047	0.995745
395.296230	0.995691
395.679351	0.995945
396.062410	0.994313
396.445408	0.995347
396.828343	0.995507
397.211217	0.994564
397.594028	0.995908
397.976778	0.996072
398.359466	0.995056
398.742092	0.995336
399.124656	0.995546
399.507158	0.995288
399.889598	0.994677
400.271977	0.994588
400.654294	0.994734
401.036549	0.995773
401.418742	0.995648
401.800874	0.992625
402.182944	0.993088
402.564952	0.992483
402.946898	0.992773
403.328783	0.990581
403.710606	0.990639
404.092367	0.989293
404.474067	0.987623
404.855705	0.986576
405.237282	0.985063
405.618797	0.982156
406.000250	0.978930
406.381642	0.977800
406.762972	0.974870
407.144240	0.972862
407.525447	0.969618
407.906593	0.966008
408.287677	0.961033
408.668700	0.958777
409.049661	0.953270
409.430560	0.949764
409.811399	0.944675
410.192176	0.938287
410.572891	0.934192
410.953545	0.927869
411.334138	0.924302
411.714669	0.918224
412.095139	0.914464
412.475547	0.905360
412.855894	0.899814
413.236180	0.893641
413.616405	0.887719
413.996568	0.879246
414.376670	0.873635
414.756711	0.868102
415.136691	0.860376
415.516609	0.849315
415.896466	0.840722
416.276262	0.831122
416.655997	0.823807
417.035670	0.808751
417.415283	0.797622
417.794834	0.790652
418.174324	0.784960
418.553753	0.780844
418.933121	0.763827
419.312428	0.751293
419.691674	0.745137
420.070859	0.730326
420.449983	0.725374
420.829045	0.710917
421.208047	0.707352
421.586988	0.694248
421.965867	0.683867
422.344686	0.668236
422.723444	0.669020
423.102141	0.670675
423.480777	0.645240
423.859352	0.650420
424.237866	0.625993
424.616319	0.619418
424.994712	0.604592
425.373044	0.605110
425.751314	0.588069
426.129524	0.592689
426.507673	0.572620
426.885762	0.562488
427.263789	0.558769
427.641756	0.561888
428.019662	0.546944
428.397508	0.539908
428.775292	0.537164
429.153016	0.525258
429.530679	0.525700
429.908282	0.514513
430.285824	0.519187
430.663305	0.495097
431.040726	0.509128
431.418086	0.506018
431.795385	0.493652
432.172624	0.489263
432.549802	0.487022
432.926920	0.482850
433.303977	0.478647
433.680974	0.473408
434.057910	0.468956
434.434786	0.466808
434.811601	0.466487
435.188355	0.447614
435.565050	0.454373
435.941683	0.454537
436.318257	0.437529
436.694770	0.436534
437.071222	0.432952
437.447614	0.436212
437.823946	0.441399
438.200218	0.430377
438.576429	0.438541
438.952580	0.430825
439.328670	0.426439
439.704700	0.432533
440.080670	0.433274
440.456580	0.413750
440.832429	0.421621
441.208218	0.431613
441.583947	0.421001
441.959616	0.419785
442.335224	0.424342
442.710773	0.415157
443.086261	0.413076
443.461689	0.426999
443.837057	0.416717
444.212365	0.406352
444.587612	0.413082
444.962800	0.402939
445.337927	0.404440
445.712995	0.430312
446.088002	0.392687
446.462949	0.403173
446.837837	0.407520
447.212664	0.396467
447.587431	0.388069
447.962139	0.358490
448.336786	0.317790
448.711374	0.328207
449.085901	0.371621
449.460369	0.376721
449.834776	0.380018
450.209124	0.359010
450.583412	0.351634
450.957640	0.344647
451.331808	0.355876
451.705917	0.379322
452.079965	0.383436
452.453954	0.371833
452.827883	0.378498
453.201752	0.373672
453.575562	0.385287
453.949311	0.373131
454.323001	0.379747
454.696632	0.374933
455.070202	0.368245
455.443713	0.359563
455.817164	0.354601
456.190556	0.350758
456.563888	0.347177
456.937160	0.344876
457.310373	0.361953
457.683526	0.360805
458.056619	0.366471
458.429653	0.367243
458.802628	0.370299
459.175542	0.364861
459.548398	0.347592
459.921194	0.339812
460.293930	0.339907
460.666607	0.317285
461.039224	0.306084
461.411782	0.301525
461.784280	0.301143
462.156719	0.305154
462.529099	0.309306
462.901419	0.325458
463.273680	0.329994
463.645882	0.329590
464.018024	0.335223
464.390106	0.328201
464.762130	0.313286
465.134094	0.295886
465.505999	0.265361
465.877845	0.235818
466.249631	0.222993
466.621358	0.230469
466.993026	0.244082
467.364634	0.250132
467.736184	0.258954
468.107674	0.267815
468.479105	0.266919
468.850477	0.273618
469.221790	0.280370
469.593043	0.290984
469.964238	0.295197
470.335373	0.295293
470.706449	0.293239
471.077467	0.293794
471.448425	0.256151
471.819324	0.231924
472.190164	0.230968
472.560945	0.259900
472.931667	0.282293
473.302330	0.286303
473.672934	0.297976
474.043479	0.286100
474.413965	0.288147
474.784393	0.291291
475.154761	0.286636
475.525070	0.283711
475.895321	0.289742
476.265513	0.283560
476.635645	0.279141
477.005719	0.279207
477.375734	0.275724
477.745691	0.268707
478.115588	0.265414
478.485427	0.258933
478.855207	0.245896
479.224928	0.228457
479.594591	0.216604
479.964194	0.220060
480.333739	0.221148
480.703226	0.222799
481.072653	0.221118
481.442022	0.216655
481.811333	0.213239
482.180584	0.216765
482.549777	0.221864
482.918912	0.225466
483.287988	0.224918
483.657005	0.224790
484.025964	0.231370
484.394864	0.228479
484.763706	0.229246
485.132489	0.234065
485.501213	0.234818
485.869879	0.233153
486.238487	0.236290
486.607036	0.234143
486.975527	0.238642
487.343959	0.234360
487.712333	0.233459
488.080648	0.235051
488.448905	0.234105
488.817104	0.235356
489.185244	0.229940
489.553326	0.226694
489.921350	0.216846
490.289315	0.199187
490.657222	0.194336
491.025070	0.195730
491.392861	0.197473
491.760593	0.203140
492.128267	0.208833
492.495883	0.214466
492.863440	0.220291
493.230939	0.226817
493.598380	0.227804
493.965763	0.230332
494.333088	0.232656
494.700354	0.233994
495.067563	0.233114
495.434713	0.236368
495.801805	0.234162
496.168839	0.235703
496.535815	0.236517
496.902733	0.236833
497.269593	0.238777
497.636395	0.236408
498.003139	0.236520
498.369825	0.239790
498.736453	0.236238
499.103023	0.237604
499.469535	0.236870
499.835989	0.237403
500.202385	0.238265
500.568723	0.241468
500.935003	0.236692
501.301226	0.240753
501.667390	0.235213
502.033497	0.233480
502.399546	0.236266
502.765537	0.237991
503.131470	0.236488
503.497345	0.232707
503.863163	0.241454
504.228923	0.234630
504.594625	0.233474
504.960269	0.238736
505.325856	0.234046
505.691385	0.238127
506.056856	0.234921
506.422270	0.234310
506.787625	0.236880
507.152924	0.234254
507.518164	0.234698
507.883347	0.236517
508.248472	0.237865
508.613540	0.233144
508.978550	0.235563
509.343503	0.236129
509.708398	0.233795
510.073236	0.231336
510.438016	0.231556
510.802738	0.232227
511.167403	0.231313
511.532010	0.233278
511.896561	0.228697
512.261053	0.227718
512.625488	0.229611
512.989866	0.229867
513.354186	0.230286
513.718449	0.232002
514.082655	0.228306
514.446803	0.230837
514.810894	0.228348
515.174927	0.230902
515.538904	0.230566
515.902822	0.227247
516.266684	0.229694
516.630488	0.230838
516.994235	0.229411
517.357925	0.228432
517.721558	0.226848
518.085133	0.226324
518.448651	0.226292
518.812112	0.228424
519.175516	0.228248
519.538863	0.225864
519.902152	0.227361
520.265385	0.224289
520.628560	0.226271
520.991678	0.226755
521.354739	0.225329
521.717743	0.226539
522.080690	0.227098
522.443580	0.224551
522.806413	0.225197
523.169189	0.224479
523.531908	0.223642
523.894569	0.226948
524.257174	0.227110
524.619722	0.224702
524.982213	0.225956
525.344647	0.224857
525.707025	0.225677
526.069345	0.223763
526.431608	0.225533
526.793815	0.223466
527.155964	0.227479
527.518057	0.226322
527.880093	0.227591
528.242072	0.226077
528.603995	0.227834
528.965860	0.229550
529.327669	0.228553
529.689421	0.229397
530.051117	0.230302
530.412755	0.227569
530.774337	0.230306
531.135862	0.230447
531.497331	0.229620
531.858743	0.232789
532.220098	0.229417
532.581396	0.232128
532.942638	0.232625
533.303824	0.233624
533.664953	0.233167
534.026025	0.234803
534.387040	0.232983
534.747999	0.233075
535.108902	0.231731
535.469748	0.236606
535.830537	0.234567
536.191270	0.235041
536.551947	0.234506
536.912567	0.234454
537.273131	0.236482
537.633638	0.236509
537.994089	0.236451
538.354483	0.237674
538.714821	0.234831
539.075103	0.234533
539.435328	0.235382
539.795497	0.239105
540.155609	0.235848
540.515665	0.233882
540.875665	0.239393
541.235609	0.238174
541.595496	0.238100
541.955328	0.234932
542.315102	0.237307
542.674821	0.238339
543.034483	0.238265
543.394090	0.238211
543.753640	0.239852
544.113134	0.234942
544.472571	0.238419
544.831953	0.235186
545.191278	0.239376
545.550548	0.238630
545.909761	0.235521
546.268918	0.236198
546.628019	0.234632
546.987064	0.237313
547.346053	0.239402
547.704986	0.236918
548.063863	0.237285
548.422684	0.237466
548.781449	0.239278
549.140158	0.236785
549.498811	0.239728
549.857408	0.242929
550.215949	0.237485
550.574434	0.240753
550.932864	0.238443
551.291237	0.237442
551.649555	0.238871
552.007817	0.238451
552.366022	0.239329
552.724173	0.239557
553.082267	0.239746
553.440305	0.236571
553.798288	0.241184
554.156215	0.237899
554.514086	0.238464
554.871902	0.241304
555.229661	0.240801
555.587365	0.241275
555.945014	0.243773
556.302606	0.240675
556.660143	0.243227
557.017625	0.239785
557.375050	0.242142
557.732421	0.238911
558.089735	0.240911
558.446994	0.241141
558.804197	0.240145
559.161345	0.240288
559.518437	0.243667
559.875474	0.241124
560.232455	0.240820
560.589381	0.241815
560.946251	0.241854
561.303065	0.239772
561.659825	0.240956
562.016528	0.242373
562.373177	0.245177
562.729770	0.242728
563.086307	0.244579
563.442789	0.242534
563.799216	0.245255
564.155587	0.244140
564.511904	0.245047
564.868164	0.245303
565.224370	0.245056
565.580520	0.246846
565.936615	0.247066
566.292654	0.249717
566.648638	0.246847
567.004567	0.247708
567.360441	0.248204
567.716260	0.250479
568.072023	0.247978
568.427732	0.248553
568.783385	0.251341
569.138982	0.249654
569.494525	0.249132
569.850013	0.252151
570.205445	0.250427
570.560823	0.252914
570.916145	0.254545
571.271412	0.252978
571.626625	0.254409
571.981782	0.255049
572.336884	0.255765
572.691931	0.255858
573.046923	0.256588
573.401860	0.258132
573.756743	0.259437
574.111570	0.258350
574.466342	0.259024
574.821059	0.258311
575.175722	0.261111
575.530330	0.260872
575.884882	0.261100
576.239380	0.262870
576.593823	0.263561
576.948211	0.262942
577.302544	0.266049
577.656823	0.265757
578.011047	0.265947
578.365216	0.266355
578.719330	0.268884
579.073389	0.268556
579.427394	0.269681
579.781344	0.270387
580.135239	0.272123
580.489080	0.271686
580.842866	0.274680
581.196597	0.274544
581.550273	0.273065
581.903895	0.274329
582.257463	0.272206
582.610975	0.275581
582.964434	0.274912
583.317837	0.277420
583.671186	0.278016
584.024481	0.278137
584.377721	0.280494
584.730906	0.281220
585.084037	0.280307
585.437113	0.281983
585.790135	0.281441
586.143103	0.284765
586.496016	0.285602
586.848874	0.283048
587.201679	0.283648
587.554428	0.287230
587.907124	0.285705
588.259765	0.286310
588.612352	0.287022
588.964884	0.290878
589.317362	0.290218
589.669786	0.290158
590.022155	0.288876
590.374470	0.287964
590.726731	0.290199
591.078937	0.294882
591.431090	0.291321
591.783188	0.295655
592.135232	0.295944
592.487222	0.295860
592.839157	0.294274
593.191038	0.296283
593.542866	0.298289
593.894639	0.301911
594.246358	0.299758
594.598022	0.299291
594.949633	0.302959
595.301190	0.303295
595.652692	0.302756
596.004141	0.298853
596.355535	0.306774
596.706876	0.307532
597.058162	0.310010
597.409395	0.307327
597.760573	0.304988
598.111698	0.308287
598.462768	0.308944
598.813785	0.310195
599.164748	0.310981
599.515657	0.311583
599.866511	0.314681
600.217312	0.309937
600.568060	0.315290
600.918753	0.311961
601.269392	0.312428
601.619978	0.316131
601.970510	0.313713
602.320988	0.313706
602.671412	0.311457
603.021783	0.313976
603.372100	0.315479
603.722363	0.315090
604.072572	0.315871
604.422728	0.315544
604.772830	0.317873
605.122878	0.317322
605.472872	0.317999
605.822813	0.316041
606.172701	0.318839
606.522534	0.316672
606.872314	0.316223
607.222041	0.317080
607.571714	0.315873
607.921333	0.316696
608.270899	0.316073
608.620411	0.313479
608.969870	0.317103
609.319276	0.317406
609.668627	0.316762
610.017926	0.315425
610.367171	0.314290
610.716362	0.314881
611.065500	0.315049
611.414585	0.314152
611.763616	0.314698
612.112594	0.314865
612.461518	0.314763
612.810389	0.311986
613.159207	0.314416
613.507971	0.316255
613.856682	0.311890
614.205340	0.313482
614.553945	0.310429
614.902496	0.314224
615.250994	0.312559
615.599439	0.312989
615.947830	0.312288
616.296169	0.313339
616.644454	0.312866
616.992686	0.312882
617.340864	0.310988
617.688990	0.314658
618.037063	0.310819
618.385082	0.313230
618.733048	0.309752
619.080961	0.312308
619.428821	0.311360
619.776628	0.311202
620.124382	0.313468
620.472083	0.313506
620.819731	0.313041
621.167326	0.316536
621.514868	0.316138
621.862357	0.320679
622.209793	0.319849
622.557176	0.322093
622.904506	0.323282
623.251783	0.325693
623.599007	0.327960
623.946179	0.327782
624.293297	0.329436
624.640363	0.333802
624.987376	0.333809
625.334336	0.336532
625.681243	0.338576
626.028097	0.339626
626.374899	0.340542
626.721647	0.340673
627.068343	0.344136
627.414987	0.344930
627.761577	0.347426
628.108115	0.345120
628.454600	0.350202
628.801032	0.347699
629.147412	0.349803
629.493739	0.350360
629.840014	0.353467
630.186236	0.350707
630.532405	0.356322
630.878521	0.353748
631.224585	0.356142
631.570597	0.359454
631.916556	0.358222
632.262462	0.358108
632.608316	0.360202
632.954117	0.361047
633.299866	0.362209
633.645562	0.362345
633.991206	0.366489
634.336797	0.369876
634.682336	0.371486
635.027823	0.373654
635.373257	0.373867
635.718639	0.377936
636.063968	0.377394
636.409245	0.383122
636.754470	0.382771
637.099642	0.385234
637.444762	0.388612
637.789829	0.387916
638.134845	0.391366
638.479808	0.392711
638.824719	0.392361
639.169577	0.396233
639.514383	0.395512
639.859137	0.399128
640.203839	0.399255
640.548489	0.399842
640.893086	0.401351
641.237632	0.402313
641.582125	0.400971
641.926566	0.402804
642.270955	0.402872
642.615292	0.403095
642.959576	0.402664
643.303809	0.403031
643.647990	0.402476
643.992118	0.402538
644.336195	0.407040
644.680219	0.404853
645.024192	0.405656
645.368112	0.399085
645.711981	0.398450
646.055797	0.393364
646.399562	0.395829
646.743274	0.387781
647.086935	0.385583
647.430544	0.385354
647.774101	0.383994
648.117606	0.383824
648.461059	0.384613
648.804460	0.386726
649.147810	0.392119
649.491108	0.394088
649.834354	0.395331
650.177548	0.400514
650.520690	0.406237
650.863781	0.407382
651.206820	0.406777
651.549807	0.411129
651.892742	0.415149
652.235626	0.414767
652.578458	0.416148
652.921238	0.421194
653.263967	0.419631
653.606644	0.423536
653.949269	0.423250
654.291843	0.427043
654.634365	0.423808
654.976836	0.427014
655.319255	0.426830
655.661622	0.428972
656.003938	0.429176
656.346203	0.432166
656.688416	0.429847
657.030577	0.433145
657.372687	0.435445
657.714746	0.436009
658.056753	0.432708
658.398708	0.436436
658.740612	0.437678
659.082465	0.434111
659.424266	0.434249
659.766016	0.433905
660.107715	0.436667
660.449362	0.435507
660.790958	0.436647
661.132503	0.436481
661.473996	0.434318
661.815438	0.435296
662.156829	0.435563
662.498168	0.436618
662.839456	0.437811
663.180693	0.435303
663.521879	0.435153
663.863013	0.435789
664.204097	0.434850
664.545129	0.431319
664.886110	0.432265
665.227040	0.429532
665.567918	0.431733
665.908746	0.430052
666.249522	0.429673
666.590248	0.430720
666.930922	0.428943
667.271545	0.427698
667.612118	0.427520
667.952639	0.429239
668.293109	0.428030
668.633528	0.431117
668.973896	0.430819
669.314213	0.431321
669.654480	0.432943
669.994695	0.432854
670.334859	0.433791
670.674973	0.434024
671.015035	0.434069
671.355047	0.434715
671.695008	0.435262
672.034918	0.437158
672.374777	0.436672
672.714585	0.437212
673.054342	0.437355
673.394049	0.438379
673.733705	0.434800
674.073310	0.436560
674.412864	0.439263
674.752368	0.439916
675.091820	0.440601
675.431223	0.444661
675.770574	0.444474
676.109875	0.447949
676.449125	0.447346
676.788324	0.450091
677.127473	0.455303
677.466571	0.454632
677.805619	0.456567
678.144616	0.457534
678.483562	0.459446
678.822458	0.462401
679.161303	0.462692
679.500098	0.463048
679.838842	0.465268
680.177535	0.464331
680.516179	0.463526
680.854771	0.462061
681.193314	0.455704
681.531805	0.446833
681.870247	0.434972
682.208638	0.427521
682.546978	0.427085
682.885268	0.428071
683.223508	0.435103
683.561697	0.438067
683.899836	0.441359
684.237925	0.444818
684.575963	0.447796
684.913951	0.450081
685.251889	0.445806
685.589776	0.447925
685.927614	0.450554
686.265401	0.444653
686.603137	0.446008
686.940824	0.439623
687.278460	0.438782
687.616046	0.437542
687.953582	0.432085
688.291068	0.434212
688.628504	0.429757
688.965889	0.432001
689.303224	0.436389
689.640510	0.439990
689.977745	0.445808
690.314930	0.453870
690.652065	0.457728
690.989150	0.465782
691.326185	0.472607
691.663170	0.476555
692.000105	0.484159
692.336990	0.490968
692.673825	0.493197
693.010610	0.500335
693.347345	0.506140
693.684030	0.507491
694.020665	0.512011
694.357251	0.520845
694.693786	0.520369
695.030272	0.524714
695.366707	0.527889
695.703093	0.531216
696.039429	0.528902
696.375716	0.531327
696.711952	0.533283
697.048139	0.535517
697.384276	0.537506
697.720363	0.535538
698.056400	0.535297
698.392388	0.540888
698.728326	0.543659
699.064214	0.546669
699.400053	0.547260
699.735842	0.550724
700.071581	0.553645
700.407270	0.556545
700.742910	0.558996
701.078501	0.566184
701.414042	0.565904
701.749533	0.569135
702.084974	0.577423
702.420366	0.570058
702.755709	0.577917
703.091002	0.586070
703.426246	0.579184
703.761440	0.584598
704.096584	0.589834
704.431679	0.586774
704.766725	0.588915
705.101721	0.590167
705.436668	0.585796
705.771565	0.593311
706.106413	0.590325
706.441212	0.584929
706.775961	0.584087
707.110661	0.586891
707.445311	0.583449
707.779913	0.579764
708.114465	0.579265
708.448967	0.575973
708.783421	0.568021
709.117825	0.562396
709.452180	0.563065
709.786485	0.555835
710.120742	0.545732
710.454949	0.548061
710.789107	0.540000
711.123216	0.531149
711.457275	0.532572
711.791286	0.524042
712.125247	0.522870
712.459159	0.533478
712.793023	0.526166
713.126837	0.529835
713.460602	0.530482
713.794318	0.539779
714.127985	0.538013
714.461602	0.549222
714.795171	0.552038
715.128691	0.559939
715.462162	0.567601
715.795584	0.572835
716.128957	0.576356
716.462281	0.582778
716.795556	0.585864
717.128782	0.590916
717.461960	0.601048
717.795088	0.598890
718.128167	0.604722
718.461198	0.613673
718.794180	0.615342
719.127113	0.616907
719.459997	0.621038
719.792833	0.627212
720.125619	0.628321
720.458357	0.634484
720.791046	0.633881
721.123686	0.637612
721.456278	0.644407
721.788821	0.641981
722.121315	0.646015
722.453761	0.649376
722.786158	0.647650
723.118506	0.643541
723.450805	0.652465
723.783056	0.647658
724.115259	0.645602
724.447412	0.644748
724.779518	0.646323
725.111574	0.645407
725.443582	0.640706
725.775542	0.643043
726.107453	0.635154
726.439315	0.635388
726.771129	0.633646
727.102895	0.626777
727.434612	0.619389
727.766281	0.617560
728.097901	0.616617
728.429473	0.616596
728.760996	0.614839
729.092471	0.615372
729.423897	0.619078
729.755276	0.618468
730.086606	0.617964
730.417887	0.612958
730.749120	0.603262
731.080305	0.594256
731.411442	0.589843
731.742530	0.595312
732.073570	0.594751
732.404562	0.586472
732.735506	0.588161
733.066401	0.593305
733.397249	0.602332
733.728048	0.613381
734.058798	0.626339
734.389501	0.636453
734.720156	0.646162
735.050762	0.654230
735.381320	0.655094
735.711831	0.664290
736.042293	0.669619
736.372707	0.665251
736.703073	0.669249
737.033391	0.672375
737.363661	0.669084
737.693883	0.663789
738.024056	0.662794
738.354182	0.663674
738.684260	0.652918
739.014290	0.648784
739.344272	0.649620
739.674207	0.643126
740.004093	0.642376
740.333931	0.643082
740.663722	0.643054
740.993464	0.643485
741.323159	0.647051
741.652806	0.651920
741.982405	0.657440
742.311956	0.662592
742.641460	0.663766
742.970915	0.668467
743.300323	0.675486
743.629683	0.682408
743.958996	0.683916
744.288260	0.688136
744.617477	0.692933
744.946647	0.694909
745.275768	0.700153
745.604842	0.700974
745.933869	0.710904
746.262847	0.710923
746.591778	0.704810
746.920662	0.711033
747.249498	0.717008
747.578286	0.708214
747.907027	0.704773
748.235720	0.705274
748.564365	0.700179
748.892963	0.700166
749.221514	0.702815
749.550017	0.709097
749.878473	0.708012
750.206881	0.714774
750.535242	0.715369
750.863555	0.714999
751.191821	0.716499
751.520039	0.719899
751.848210	0.725063
752.176334	0.717592
752.504411	0.716070
752.832440	0.724438
753.160421	0.727445
753.488356	0.725953
753.816243	0.723903
754.144082	0.732243
754.471875	0.735408
754.799620	0.731443
755.127318	0.732937
755.454969	0.732696
755.782572	0.730766
756.110129	0.736183
756.437638	0.739577
756.765100	0.735381
757.092515	0.734082
757.419882	0.733626
757.747203	0.738010
758.074477	0.737247
758.401703	0.734876
758.728882	0.729551
759.056014	0.728350
759.383099	0.726338
759.710138	0.728365
760.037129	0.725039
760.364073	0.718638
760.690970	0.721317
761.017820	0.727101
761.344623	0.722669
761.671379	0.714707
761.998088	0.701409
762.324751	0.679322
762.651366	0.637287
762.977935	0.570864
763.304456	0.518385
763.630931	0.509173
763.957359	0.548080
764.283740	0.593121
764.610074	0.620048
764.936362	0.651068
765.262602	0.678244
765.588796	0.698731
765.914943	0.716881
766.241044	0.734097
766.567097	0.741260
766.893104	0.751436
767.219064	0.757569
767.544978	0.764205
767.870845	0.778016
768.196665	0.781492
768.522438	0.779754
768.848165	0.780809
769.173846	0.789451
769.499479	0.793561
769.825066	0.797463
770.150607	0.802971
770.476101	0.797272
770.801548	0.799445
771.126949	0.810159
771.452303	0.814084
771.777611	0.813251
772.102872	0.811547
772.428087	0.817688
772.753256	0.820652
773.078378	0.823119
773.403453	0.831352
773.728482	0.836623
774.053465	0.830347
774.378401	0.833726
774.703291	0.841836
775.028135	0.841421
775.352932	0.842708
775.677683	0.846153
776.002388	0.847012
776.327046	0.844764
776.651658	0.849282
776.976224	0.852478
777.300743	0.853623
777.625216	0.854927
777.949643	0.857426
778.274024	0.856772
778.598359	0.859562
778.922647	0.857429
779.246889	0.857752
779.571086	0.861738
779.895236	0.863695
780.219339	0.860761
780.543397	0.858760
780.867409	0.856584
781.191374	0.859409
781.515294	0.860756
781.839167	0.858559
782.162995	0.862764
782.486776	0.860160
782.810511	0.860216
783.134201	0.863649
783.457844	0.862399
783.781441	0.865224
784.104993	0.869421
784.428498	0.870461
784.751958	0.866000
785.075372	0.869388
785.398739	0.872681
785.722061	0.869582
786.045337	0.865057
786.368568	0.869000
786.691752	0.871471
787.014891	0.857286
787.337983	0.849499
787.661030	0.841196
787.984031	0.823827
788.306987	0.810897
788.629897	0.813360
788.952760	0.816428
789.275579	0.821958
789.598351	0.836644
789.921078	0.849512
790.243759	0.852762
790.566395	0.855699
790.888984	0.863511
791.211529	0.868909
791.534027	0.870887
791.856480	0.874321
792.178888	0.878867
792.501249	0.881739
792.823566	0.882536
793.145836	0.883026
793.468062	0.884840
793.790241	0.885083
794.112375	0.882551
794.434464	0.878586
794.756507	0.877228
795.078505	0.878643
795.400457	0.872352
795.722364	0.860129
796.044226	0.852375
796.366042	0.852458
796.687812	0.855637
797.009538	0.850721
797.331218	0.854140
797.652852	0.859644
797.974442	0.863715
798.295986	0.864220
798.617484	0.867028
798.938938	0.871735
799.260346	0.875819
799.581709	0.877762
799.903026	0.880750
800.224299	0.880033
800.545526	0.884589
800.866708	0.889532
801.187845	0.891551
801.508936	0.891959
801.829983	0.890010
802.150984	0.893251
802.471940	0.897589
802.792851	0.897240
803.113717	0.898019
803.434538	0.896586
803.755314	0.897858
804.076045	0.900405
804.396731	0.900445
804.717372	0.900544
805.037967	0.902311
805.358518	0.899640
805.679024	0.896836
805.999485	0.896510
806.319901	0.896794
806.640272	0.897782
806.960598	0.896574
807.280879	0.894947
807.601115	0.891899
807.921306	0.896003
808.241453	0.896428
808.561554	0.894682
808.881611	0.893896
809.201623	0.895728
809.521590	0.896633
809.841513	0.896926
810.161390	0.897527
810.481223	0.898621
810.801011	0.900976
811.120755	0.903436
811.440453	0.901538
811.760107	0.900985
812.079716	0.900800
812.399281	0.903540
812.718801	0.906522
813.038276	0.907357
813.357707	0.906982
813.677093	0.903734
813.996434	0.907548
814.315731	0.908673
814.634983	0.910049
814.954191	0.908478
815.273354	0.905241
815.592473	0.901669
815.911547	0.901129
816.230577	0.899486
816.549562	0.896049
816.868502	0.897349
817.187399	0.892980
817.506250	0.889429
817.825058	0.890082
818.143821	0.886826
818.462539	0.881056
818.781213	0.873433
819.099843	0.862536
819.418429	0.846847
819.736970	0.829279
820.055466	0.810356
820.373919	0.783642
820.692327	0.751366
821.010691	0.715684
821.329011	0.638592
821.647286	0.523331
821.965517	0.409085
822.283704	0.366395
822.601847	0.367453
822.919945	0.403109
823.237999	0.437344
823.556010	0.483729
823.873976	0.540044
824.191897	0.591265
824.509775	0.633323
824.827609	0.678453
825.145398	0.700840
825.463144	0.704011
825.780845	0.687910
826.098502	0.667954
826.416116	0.622831
826.733685	0.578569
827.051210	0.569790
827.368692	0.584495
827.686129	0.622061
828.003522	0.675038
828.320872	0.723013
828.638177	0.766905
828.955439	0.799863
829.272656	0.821725
829.589830	0.838747
829.906960	0.854531
830.224046	0.866879
830.541088	0.877633
830.858086	0.880831
831.175041	0.887976
831.491952	0.887907
831.808819	0.882998
832.125642	0.878425
832.442421	0.862121
832.759157	0.840023
833.075849	0.793509
833.392497	0.729649
833.709101	0.688921
834.025662	0.698509
834.342179	0.730919
834.658653	0.769911
834.975083	0.805800
835.291469	0.831769
835.607811	0.854651
835.924110	0.870321
836.240366	0.887342
836.556578	0.901305
836.872746	0.907705
837.188871	0.914926
837.504952	0.920804
837.820990	0.924364
838.136984	0.927306
838.452935	0.930742
838.768842	0.932203
839.084706	0.925226
839.400526	0.899441
839.716303	0.859431
840.032037	0.836123
840.347727	0.839727
840.663373	0.858441
840.978977	0.879602
841.294537	0.902522
841.610054	0.919386
841.925527	0.925760
842.240957	0.933170
842.556344	0.940195
842.871687	0.946631
843.186987	0.950829
843.502244	0.950600
843.817458	0.952668
844.132629	0.955975
844.447756	0.960641
844.762840	0.961275
845.077881	0.960756
845.392879	0.958844
845.707833	0.962996
846.022745	0.964394
846.337613	0.965957
846.652438	0.967206
846.967221	0.964873
847.281960	0.964882
847.596656	0.967772
847.911309	0.966068
848.225919	0.969153
848.540485	0.969290
848.855009	0.969336
849.169490	0.969746
849.483928	0.968802
849.798323	0.969444
850.112675	0.969936
850.426984	0.971044
850.741251	0.970442
851.055474	0.970712
851.369654	0.968950
851.683792	0.969762
851.997887	0.969535
852.311938	0.971283
852.625947	0.969465
852.939914	0.968776
853.253837	0.969442
853.567718	0.970460
853.881555	0.970568
854.195350	0.968593
854.509103	0.970149
854.822812	0.970193
855.136479	0.971376
855.450103	0.970214
855.763685	0.969279
856.077224	0.968354
856.390720	0.971299
856.704173	0.971240
857.017584	0.969005
857.330953	0.967741
857.644278	0.968098
857.957561	0.968456
858.270802	0.969500
858.584000	0.968994
858.897155	0.966993
859.210268	0.968189
859.523339	0.969015
859.836367	0.971214
860.149352	0.971230
860.462295	0.968351
860.775195	0.969306
861.088054	0.969126
861.400869	0.970193
861.713642	0.971142
862.026373	0.970286
862.339062	0.971283
862.651708	0.968188
862.964312	0.967648
863.276873	0.969538
863.589392	0.967629
863.901869	0.966427
864.214303	0.966072
864.526696	0.964142
864.839045	0.963255
865.151353	0.962649
865.463619	0.963183
865.775842	0.963783
866.088023	0.963069
866.400162	0.962138
866.712258	0.962802
867.024313	0.961964
867.336325	0.964366
867.648296	0.963955
867.960224	0.961900
868.272110	0.961749
868.583954	0.964307
868.895755	0.964521
869.207515	0.961637
869.519233	0.959573
869.830909	0.960639
870.142542	0.962918
870.454134	0.961658
870.765684	0.962046
871.077191	0.958680
871.388657	0.958971
871.700081	0.958281
872.011463	0.958917
872.322803	0.959104
872.634101	0.956637
872.945357	0.955008
873.256571	0.953813
873.567744	0.952668
873.878874	0.953592
874.189963	0.951978
874.501010	0.951838
874.812015	0.950413
875.122979	0.952151
875.433900	0.953771
875.744780	0.953680
876.055618	0.952284
876.366415	0.950936
876.677169	0.950161
876.987882	0.952435
877.298554	0.951412
877.609183	0.947345
877.919771	0.946234
878.230317	0.942316
878.540822	0.941648
878.851285	0.935818
879.161707	0.927638
879.472087	0.915047
879.782425	0.898988
880.092722	0.864540
880.402977	0.812332
880.713191	0.751851
881.023363	0.692087
881.333494	0.658465
881.643583	0.630482
881.953631	0.630143
882.263637	0.659240
882.573602	0.697898
882.883526	0.724302
883.193408	0.748199
883.503248	0.769985
883.813048	0.798080
884.122806	0.826885
884.432522	0.850808
884.742197	0.870758
885.051831	0.881073
885.361424	0.891923
885.670975	0.903345
885.980485	0.913803
886.289954	0.919277
886.599382	0.925028
886.908768	0.927462
887.218113	0.935443
887.527417	0.938646
887.836680	0.942127
888.145901	0.944197
888.455082	0.946839
888.764221	0.950229
889.073319	0.952508
889.382376	0.952758
889.691392	0.953363
890.000366	0.952669
890.309300	0.954268
890.618193	0.953574
890.927044	0.951883
891.235855	0.951959
891.544625	0.951998
891.853353	0.952197
892.162041	0.949413
892.470687	0.942708
892.779293	0.937756
893.087858	0.934852
893.396381	0.926835
893.704864	0.913328
894.013306	0.889326
894.321707	0.862700
894.630068	0.847583
894.938387	0.843182
895.246665	0.844389
895.554903	0.856851
895.863100	0.869842
896.171256	0.887684
896.479371	0.906193
896.787446	0.919464
897.095480	0.925566
897.403473	0.928461
897.711425	0.932116
898.019336	0.939615
898.327207	0.942658
898.635038	0.945766
898.942827	0.946245
899.250576	0.948687
899.558284	0.953318
899.865952	0.954438
900.173579	0.955149
900.481165	0.955965
900.788711	0.959268
901.096216	0.961641
901.403681	0.961555
901.711105	0.963626
902.018489	0.963700
902.325832	0.963797
902.633135	0.961506
902.940397	0.955960
903.247619	0.943553
903.554800	0.918596
903.861941	0.878648
904.169041	0.842564
904.476101	0.825234
904.783121	0.825857
905.090100	0.843179
905.397039	0.864452
905.703938	0.886459
906.010796	0.906372
906.317614	0.923069
906.624391	0.934250
906.931129	0.944469
907.237826	0.952790
907.544483	0.959773
907.851099	0.963344
908.157675	0.968159
908.464211	0.969633
908.770707	0.972289
909.077163	0.974631
909.383578	0.974736
909.689954	0.974349
909.996289	0.975437
910.302584	0.977551
910.608839	0.980564
910.915054	0.979479
911.221229	0.978628
911.527363	0.977984
911.833458	0.977589
912.139513	0.977232
912.445527	0.975890
912.751502	0.974282
913.057436	0.973192
913.363331	0.970651
913.669186	0.966112
913.975000	0.960718
914.280775	0.955951
914.586510	0.948850
914.892205	0.934200
915.197859	0.914255
915.503475	0.886723
915.809050	0.867264
916.114585	0.861532
916.420081	0.859460
916.725536	0.855108
917.030952	0.863763
917.336328	0.876216
917.641665	0.892146
917.946961	0.908167
918.252218	0.918519
918.557435	0.927114
918.862612	0.936699
919.167750	0.942609
919.472848	0.948231
919.777906	0.952968
920.082925	0.958783
920.387904	0.962387
920.692843	0.963825
920.997743	0.963335
921.302603	0.967994
921.607423	0.969865
921.912204	0.972353
922.216946	0.972789
922.521647	0.974528
922.826310	0.975874
923.130932	0.978124
923.435516	0.978819
923.740059	0.980190
924.044564	0.978633
924.349028	0.981546
924.653454	0.984020
924.957840	0.985931
925.262186	0.984928
925.566493	0.983685
925.870761	0.985130
926.174989	0.986652
926.479178	0.989252
926.783328	0.989071
927.087438	0.989418
927.391509	0.988005
927.695541	0.990494
927.999533	0.990249
928.303486	0.989731
928.607400	0.992163
928.911275	0.989793
929.215110	0.990906
929.518906	0.990748
929.822663	0.990349
930.126381	0.990984
930.430060	0.991761
930.733699	0.990454
931.037299	0.990127
931.340861	0.991783
931.644383	0.990860
931.947866	0.989094
932.251309	0.990825
932.554714	0.991455
932.858080	0.991312
933.161407	0.990952
933.464694	0.991820
933.767943	0.990219
934.071153	0.992186
934.374323	0.991384
934.677455	0.991602
934.980548	0.992221
935.283602	0.991348
935.586617	0.991296
935.889593	0.990608
936.192530	0.992369
936.495428	0.990782
936.798287	0.991267
937.101108	0.991815
937.403890	0.988969
937.706632	0.989726
938.009336	0.987413
938.312002	0.985949
938.614628	0.985253
938.917216	0.984116
939.219765	0.982519
939.522275	0.983171
939.824747	0.984110
940.127179	0.982648
940.429573	0.984649
940.731929	0.983848
941.034246	0.984187
941.336524	0.985617
941.638763	0.986326
941.940964	0.986786
942.243126	0.987231
942.545250	0.988457
942.847335	0.989469
943.149381	0.989217
943.451389	0.988735
943.753359	0.988495
944.055290	0.991505
944.357182	0.990214
944.659036	0.988626
944.960851	0.991154
945.262628	0.991824
945.564367	0.990676
945.866067	0.990737
946.167729	0.991017
946.469352	0.989966
946.770937	0.989167
947.072484	0.991365
947.373992	0.991054
947.675462	0.990744
947.976893	0.989619
948.278286	0.990875
948.579641	0.992020
948.880958	0.991652
949.182236	0.991511
949.483476	0.992143
949.784678	0.990988
950.085841	0.991887
950.386967	0.990076
950.688054	0.991265
950.989103	0.992823
951.290114	0.989766
951.591087	0.990181
951.892021	0.991306
952.192917	0.988459
952.493776	0.987718
952.794596	0.988583
953.095378	0.987550
953.396122	0.988524
953.696828	0.987453
953.997496	0.990481
954.298126	0.990362
954.598718	0.991026
954.899272	0.991794
955.199788	0.991682
955.500266	0.992127
955.800706	0.993981
956.101108	0.993479
956.401472	0.994280
956.701798	0.994580
957.002087	0.992362
957.302337	0.993669
957.602550	0.995621
957.902724	0.996299
958.202861	0.995036
958.502960	0.996424
958.803022	0.994546
959.103045	0.997106
959.403031	0.995593
959.702979	0.995188
960.002889	0.996095
960.302762	0.995419
960.602596	0.996058
960.902393	0.995467
961.202153	0.996861
961.501875	0.996812
961.801559	0.996304
962.101205	0.995448
962.400814	0.997198
962.700385	0.997240
962.999918	0.997411
963.299414	0.996874
963.598873	0.996314
963.898293	0.996276
964.197677	0.996682
964.497022	0.997486
964.796331	0.999244
965.095601	0.997690
965.394835	0.997746
965.694030	0.997179
965.993189	0.997160
966.292309	0.997904
966.591393	0.998262
966.890439	0.997458
967.189447	0.997296
967.488419	0.997632
967.787353	0.997441
968.086249	0.996263
968.385108	0.997220
968.683930	0.997630
968.982714	0.997725
969.281462	0.998203
969.580172	0.997240
969.878844	0.996946
970.177480	0.995905
970.476078	0.998633
970.774639	0.997800
971.073162	0.997907
971.371649	0.997820
971.670098	0.996782
971.968510	0.998811
972.266885	0.997068
972.565223	0.997384
972.863524	0.997427
973.161788	0.997004
973.460014	0.998288
973.758204	0.996196
974.056356	0.997061
974.354471	0.995260
974.652550	0.996655
974.950591	0.996230
975.248595	0.996801
975.546563	0.996699
975.844493	0.998501
976.142386	0.997065
976.440243	0.998454
976.738062	0.997444
977.035845	0.998130
977.333590	0.998177
977.631299	0.998885
977.928971	0.997513
978.226606	0.997089
978.524204	0.995975
978.821765	0.998609
979.119290	0.996910
979.416777	0.997317
979.714228	0.996661
980.011642	0.997129
980.309020	0.997210
980.606360	0.997722
980.903664	0.999444
981.200931	0.996258
981.498162	0.995026
981.795356	0.994649
982.092513	0.993920
982.389633	0.994569
982.686717	0.993536
982.983764	0.992377
983.280775	0.991749
983.577749	0.990863
983.874686	0.992978
984.171587	0.992373
984.468451	0.994163
984.765279	0.994641
985.062070	0.994743
985.358824	0.995488
985.655543	0.994962
985.952224	0.997345
986.248869	0.996992
986.545478	0.997756
986.842050	0.999457
987.138586	0.995720
987.435086	0.997932
987.731549	1.000024
988.027975	0.998137
988.324366	0.997695
988.620719	0.997610
988.917037	0.997037
989.213318	0.999276
989.509563	0.999179
989.805772	0.997677
990.101944	0.997645
990.398080	0.998036
990.694180	0.998652
990.990244	0.998229
991.286271	0.998445
991.582262	0.998032
991.878217	0.998841
992.174136	0.999061
992.470019	0.999051
992.765865	0.998972
993.061676	0.999556
993.357450	0.998104
993.653188	0.998309
993.948890	0.998108
994.244556	0.998611
994.540186	0.997947
994.835780	0.997206
995.131337	0.999339
995.426859	0.997261
995.722345	0.998131
996.017795	0.996155
996.313208	0.996673
996.608586	0.995860
996.903928	0.997520
997.199234	0.996532
997.494504	0.996729
997.789738	0.997368
998.084936	0.997296
998.380099	0.998984
998.675225	0.997785
998.970316	0.998779
999.265371	0.998888
999.560390	0.998646
999.855373	0.998754
1000.150320	0.997922
1000.445232	0.998900
1000.740108	0.998839
1001.034948	0.998803
1001.329752	0.999523
1001.624521	0.999539
1001.919254	0.999708
1002.213951	0.998422
1002.508613	0.999543
1002.803239	0.999607
1003.097829	0.999940
1003.392384	1.000365
1003.686903	0.999055
1003.981386	0.998959
1004.275834	1.000080
1004.570246	0.998896
1004.864623	0.999466
1005.158964	1.001937
1005.453270	0.999382
1005.747540	0.998114
1006.041775	0.998639
1006.335974	0.999734
1006.630138	0.999994
1006.924266	0.999626
1007.218359	1.000919
1007.512416	1.000781
1007.806438	0.999785
1008.100425	1.000093
1008.394376	0.998964
1008.688292	0.999456
1008.982172	1.000890
1009.276017	1.000416
1009.569827	0.999915
1009.863602	0.998866
1010.157341	1.001515
1010.451045	0.999752
1010.744714	1.000271
1011.038347	0.999834
1011.331945	0.998565
1011.625508	0.998220
1011.919036	0.999316
1012.212528	0.999525
1012.505986	0.998239
1012.799408	0.999812
1013.092795	0.999728
1013.386147	0.999828
1013.679464	0.999904
1013.972745	0.998114
1014.265992	0.998932
1014.559204	0.999805
1014.852380	1.000078
1015.145521	1.000239
1015.438628	0.999581
1015.731699	0.999035
1016.024736	0.999177
1016.317737	1.000571
1016.610703	0.999041
1016.903635	1.000435
1017.196531	0.998990
1017.489393	0.999906
1017.782219	0.999852
1018.075011	1.000134
1018.367768	1.000300
1018.660490	1.000778
1018.953177	1.000778
1019.245829	1.000778
