Dividing Wavelength (nm)	Counts (n)	Blue Motor Position (mm): 0.000000	Red Motor Position (mm): 32.600000	
326.493990	1.000518
326.888308	1.000518
327.282561	1.000518
327.676750	0.999522
328.070874	0.999658
328.464933	1.000774
328.858929	0.999764
329.252859	0.999926
329.646726	0.999425
330.040528	1.000160
330.434265	0.999288
330.827938	1.000682
331.221547	1.000894
331.615091	0.998872
332.008571	0.998780
332.401986	0.999823
332.795338	0.999416
333.188625	0.997706
333.581847	1.000309
333.975006	0.999226
334.368100	0.999583
334.761129	0.999834
335.154095	1.001163
335.546996	0.997483
335.939833	0.994826
336.332606	0.996453
336.725315	0.994993
337.117960	0.997511
337.510540	0.996118
337.903056	0.996433
338.295508	0.995687
338.687896	0.996689
339.080220	0.995916
339.472480	0.995642
339.864676	0.995417
340.256807	0.995375
340.648875	0.997504
341.040879	0.996137
341.432818	0.996032
341.824694	0.995277
342.216506	0.997518
342.608253	0.997296
342.999937	0.995254
343.391557	0.995628
343.783113	0.995914
344.174605	0.995157
344.566033	0.995998
344.957397	0.995230
345.348697	0.994652
345.739934	0.995078
346.131106	0.995799
346.522215	0.995002
346.913260	0.996523
347.304241	0.995853
347.695159	0.995850
348.086012	0.995537
348.476802	0.996399
348.867528	0.996979
349.258191	0.995918
349.648789	0.996180
350.039324	0.995635
350.429796	0.996637
350.820203	0.995861
351.210548	0.996507
351.600828	0.996657
351.991045	0.996625
352.381198	0.996033
352.771288	0.995229
353.161314	0.995542
353.551276	0.996692
353.941175	0.997109
354.331010	0.996310
354.720782	0.997100
355.110490	0.996170
355.500135	0.996507
355.889717	0.995798
356.279235	0.995676
356.668689	0.995864
357.058080	0.995117
357.447408	0.997003
357.836672	0.996028
358.225873	0.996713
358.615010	0.996047
359.004084	0.997328
359.393095	0.996737
359.782043	0.995971
360.170927	0.996903
360.559748	0.995675
360.948505	0.995920
361.337199	0.994331
361.725830	0.997491
362.114398	0.995510
362.502903	0.996810
362.891344	0.996489
363.279722	0.996505
363.668037	0.997008
364.056289	0.996198
364.444478	0.996951
364.832603	0.996939
365.220665	0.996033
365.608665	0.996511
365.996601	0.995453
366.384474	0.995497
366.772284	0.996700
367.160031	0.994345
367.547715	0.994530
367.935336	0.996623
368.322893	0.996260
368.710388	0.995808
369.097820	0.995657
369.485189	0.996087
369.872495	0.995695
370.259738	0.994696
370.646918	0.996503
371.034035	0.997571
371.421090	0.996042
371.808081	0.995725
372.195010	0.997247
372.581875	0.996822
372.968678	0.996299
373.355418	0.996708
373.742096	0.997005
374.128710	0.997381
374.515262	0.996026
374.901751	0.997257
375.288177	0.996327
375.674540	0.997717
376.060841	0.996097
376.447079	0.997354
376.833254	0.996981
377.219367	0.996743
377.605417	0.996910
377.991404	0.998809
378.377329	0.995703
378.763191	0.996906
379.148991	0.998132
379.534727	0.997452
379.920402	0.996717
380.306013	0.997316
380.691563	0.997866
381.077049	0.995919
381.462474	0.997302
381.847835	0.996051
382.233134	0.996993
382.618371	0.997063
383.003545	0.997422
383.388657	0.997542
383.773706	0.998414
384.158693	0.998026
384.543618	0.997597
384.928480	0.997920
385.313280	0.997886
385.698017	0.997842
386.082692	0.998573
386.467305	0.997160
386.851856	0.997175
387.236344	0.996009
387.620770	0.997586
388.005133	0.998347
388.389435	0.998768
388.773674	0.997706
389.157851	0.997989
389.541965	0.998005
389.926018	0.997178
390.310008	0.998715
390.693936	0.997791
391.077802	0.997559
391.461606	0.997462
391.845348	0.998338
392.229027	0.998228
392.612645	0.998355
392.996200	0.999543
393.379694	0.998689
393.763125	0.998093
394.146494	0.997816
394.529801	0.998022
394.913047	0.998496
395.296230	0.997606
395.679351	0.998156
396.062410	0.998072
396.445408	0.998590
396.828343	0.997637
397.211217	0.997730
397.594028	0.998573
397.976778	0.997269
398.359466	0.998466
398.742092	0.997284
399.124656	0.997853
399.507158	0.998429
399.889598	0.998136
400.271977	0.998310
400.654294	0.997973
401.036549	0.999072
401.418742	0.998515
401.800874	0.997660
402.182944	0.998201
402.564952	0.997247
402.946898	0.998949
403.328783	0.999137
403.710606	0.998650
404.092367	0.998378
404.474067	0.998598
404.855705	0.997378
405.237282	0.998752
405.618797	0.998311
406.000250	0.997616
406.381642	0.998021
406.762972	0.998425
407.144240	0.999022
407.525447	0.998052
407.906593	0.998419
408.287677	0.997510
408.668700	0.998707
409.049661	0.996763
409.430560	0.998529
409.811399	0.997057
410.192176	0.997517
410.572891	0.997946
410.953545	0.997955
411.334138	0.997974
411.714669	0.997861
412.095139	0.997573
412.475547	0.998517
412.855894	0.997900
413.236180	0.998748
413.616405	0.998070
413.996568	0.998789
414.376670	0.997675
414.756711	0.998564
415.136691	0.998075
415.516609	0.998271
415.896466	0.997499
416.276262	0.997158
416.655997	0.998653
417.035670	0.997924
417.415283	0.998296
417.794834	0.997562
418.174324	0.998227
418.553753	0.997359
418.933121	0.997396
419.312428	0.998297
419.691674	0.998677
420.070859	0.998574
420.449983	0.998107
420.829045	0.997900
421.208047	0.998751
421.586988	0.999037
421.965867	0.998512
422.344686	0.998385
422.723444	0.998757
423.102141	0.998954
423.480777	0.998637
423.859352	0.998091
424.237866	0.998067
424.616319	0.998020
424.994712	0.998225
425.373044	0.998894
425.751314	0.998415
426.129524	0.997683
426.507673	0.998596
426.885762	0.998801
427.263789	0.998461
427.641756	0.998580
428.019662	0.999209
428.397508	0.997800
428.775292	0.997458
429.153016	0.997815
429.530679	0.997637
429.908282	0.998482
430.285824	0.998123
430.663305	0.997478
431.040726	0.998387
431.418086	0.999959
431.795385	0.998611
432.172624	0.998131
432.549802	0.998346
432.926920	0.999475
433.303977	0.997836
433.680974	0.997988
434.057910	0.998172
434.434786	0.998236
434.811601	0.997466
435.188355	0.997574
435.565050	0.997322
435.941683	0.998787
436.318257	0.999411
436.694770	0.997671
437.071222	0.998917
437.447614	0.998465
437.823946	0.998150
438.200218	0.998178
438.576429	0.998170
438.952580	0.998237
439.328670	0.997657
439.704700	0.998144
440.080670	0.997971
440.456580	0.998024
440.832429	0.997460
441.208218	0.998112
441.583947	0.998522
441.959616	0.998230
442.335224	0.998503
442.710773	0.999325
443.086261	0.998342
443.461689	0.998126
443.837057	0.997747
444.212365	0.998520
444.587612	0.997664
444.962800	0.997621
445.337927	0.999172
445.712995	0.998811
446.088002	0.998901
446.462949	0.998754
446.837837	0.998630
447.212664	0.998606
447.587431	0.998844
447.962139	0.998483
448.336786	0.998564
448.711374	0.998575
449.085901	0.998124
449.460369	0.998729
449.834776	0.997858
450.209124	0.998663
450.583412	0.998783
450.957640	0.999272
451.331808	0.998338
451.705917	0.997984
452.079965	0.997200
452.453954	0.998106
452.827883	0.997948
453.201752	0.998504
453.575562	0.999338
453.949311	0.999042
454.323001	0.998148
454.696632	0.998269
455.070202	0.998014
455.443713	0.997496
455.817164	0.998889
456.190556	0.998226
456.563888	0.998121
456.937160	0.998346
457.310373	0.997826
457.683526	0.998345
458.056619	0.998046
458.429653	0.998427
458.802628	0.997308
459.175542	0.997398
459.548398	0.997997
459.921194	0.997819
460.293930	0.998331
460.666607	0.997792
461.039224	0.997570
461.411782	0.997994
461.784280	0.998227
462.156719	0.998678
462.529099	0.998118
462.901419	0.998010
463.273680	0.998074
463.645882	0.997752
464.018024	0.998644
464.390106	0.998502
464.762130	0.998762
465.134094	0.999202
465.505999	0.999184
465.877845	0.998443
466.249631	0.998781
466.621358	0.998238
466.993026	0.998075
467.364634	0.998306
467.736184	0.998085
468.107674	0.997645
468.479105	0.997975
468.850477	0.998554
469.221790	0.997805
469.593043	0.998383
469.964238	0.998644
470.335373	0.997656
470.706449	0.997850
471.077467	0.998304
471.448425	0.998105
471.819324	0.998491
472.190164	0.998002
472.560945	0.998314
472.931667	0.997252
473.302330	0.997372
473.672934	0.997847
474.043479	0.998336
474.413965	0.997457
474.784393	0.997756
475.154761	0.997456
475.525070	0.996254
475.895321	0.997958
476.265513	0.997612
476.635645	0.997405
477.005719	0.997507
477.375734	0.997549
477.745691	0.996689
478.115588	0.997591
478.485427	0.996843
478.855207	0.996587
479.224928	0.996891
479.594591	0.997025
479.964194	0.996501
480.333739	0.996335
480.703226	0.996341
481.072653	0.996682
481.442022	0.996960
481.811333	0.994897
482.180584	0.996336
482.549777	0.995003
482.918912	0.995039
483.287988	0.995019
483.657005	0.993867
484.025964	0.994042
484.394864	0.993759
484.763706	0.993046
485.132489	0.992792
485.501213	0.992198
485.869879	0.991723
486.238487	0.991635
486.607036	0.991273
486.975527	0.989529
487.343959	0.989496
487.712333	0.988770
488.080648	0.987586
488.448905	0.987454
488.817104	0.986415
489.185244	0.985819
489.553326	0.984746
489.921350	0.983147
490.289315	0.979972
490.657222	0.980335
491.025070	0.978889
491.392861	0.977504
491.760593	0.976767
492.128267	0.975934
492.495883	0.974785
492.863440	0.974428
493.230939	0.972906
493.598380	0.971259
493.965763	0.969185
494.333088	0.968790
494.700354	0.966202
495.067563	0.964727
495.434713	0.963061
495.801805	0.962129
496.168839	0.959204
496.535815	0.957036
496.902733	0.955403
497.269593	0.953348
497.636395	0.951777
498.003139	0.948573
498.369825	0.947257
498.736453	0.943554
499.103023	0.940848
499.469535	0.938476
499.835989	0.936678
500.202385	0.933694
500.568723	0.931083
500.935003	0.927978
501.301226	0.924538
501.667390	0.921857
502.033497	0.918549
502.399546	0.916149
502.765537	0.911738
503.131470	0.907844
503.497345	0.904158
503.863163	0.903000
504.228923	0.897991
504.594625	0.893804
504.960269	0.890956
505.325856	0.886151
505.691385	0.882190
506.056856	0.878200
506.422270	0.873354
506.787625	0.870751
507.152924	0.864624
507.518164	0.861185
507.883347	0.856516
508.248472	0.851839
508.613540	0.846497
508.978550	0.843152
509.343503	0.837320
509.708398	0.832878
510.073236	0.827321
510.438016	0.823046
510.802738	0.817391
511.167403	0.812472
511.532010	0.806317
511.896561	0.801168
512.261053	0.796312
512.625488	0.790124
512.989866	0.784996
513.354186	0.779201
513.718449	0.774213
514.082655	0.767983
514.446803	0.762519
514.810894	0.756716
515.174927	0.750875
515.538904	0.745720
515.902822	0.738185
516.266684	0.733908
516.630488	0.728309
516.994235	0.722727
517.357925	0.714900
517.721558	0.708988
518.085133	0.702033
518.448651	0.697796
518.812112	0.692094
519.175516	0.685316
519.538863	0.678593
519.902152	0.673954
520.265385	0.664900
520.628560	0.660832
520.991678	0.653928
521.354739	0.648269
521.717743	0.642765
522.080690	0.637246
522.443580	0.628277
522.806413	0.623269
523.169189	0.617055
523.531908	0.610324
523.894569	0.606488
524.257174	0.599615
524.619722	0.592325
524.982213	0.588176
525.344647	0.580541
525.707025	0.575328
526.069345	0.568374
526.431608	0.563044
526.793815	0.556460
527.155964	0.552580
527.518057	0.546836
527.880093	0.541709
528.242072	0.535394
528.603995	0.529869
528.965860	0.526110
529.327669	0.519249
529.689421	0.514684
530.051117	0.509998
530.412755	0.502119
530.774337	0.499393
531.135862	0.492950
531.497331	0.488219
531.858743	0.484557
532.220098	0.477395
532.581396	0.473989
532.942638	0.469723
533.303824	0.464962
533.664953	0.459407
534.026025	0.455767
534.387040	0.449318
534.747999	0.445221
535.108902	0.439305
535.469748	0.438341
535.830537	0.431988
536.191270	0.427639
536.551947	0.422807
536.912567	0.418218
537.273131	0.415838
537.633638	0.411354
537.994089	0.407021
538.354483	0.404026
538.714821	0.397917
539.075103	0.393443
539.435328	0.390071
539.795497	0.389568
540.155609	0.382097
540.515665	0.377152
540.875665	0.378498
541.235609	0.373064
541.595496	0.369718
541.955328	0.362747
542.315102	0.362299
542.674821	0.359559
543.034483	0.355927
543.394090	0.352303
543.753640	0.351145
544.113134	0.343379
544.472571	0.343404
544.831953	0.337332
545.191278	0.338003
545.550548	0.334792
545.909761	0.329002
546.268918	0.326921
546.628019	0.322430
546.987064	0.322300
547.346053	0.321779
547.704986	0.316498
548.063863	0.314398
548.422684	0.312666
548.781449	0.311680
549.140158	0.307492
549.498811	0.307544
549.857408	0.308574
550.215949	0.301095
550.574434	0.302243
550.932864	0.297678
551.291237	0.295316
551.649555	0.294055
552.007817	0.292393
552.366022	0.291714
552.724173	0.289807
553.082267	0.288765
553.440305	0.283735
553.798288	0.286795
554.156215	0.281523
554.514086	0.280945
554.871902	0.282652
555.229661	0.280370
555.587365	0.279445
555.945014	0.281098
556.302606	0.276117
556.660143	0.277856
557.017625	0.272828
557.375050	0.273772
557.732421	0.269838
558.089735	0.270940
558.446994	0.270116
558.804197	0.268211
559.161345	0.266879
559.518437	0.269557
559.875474	0.266338
560.232455	0.264824
560.589381	0.265093
560.946251	0.264427
561.303065	0.261217
561.659825	0.261949
562.016528	0.262474
562.373177	0.264725
562.729770	0.261481
563.086307	0.263017
563.442789	0.260227
563.799216	0.262340
564.155587	0.260569
564.511904	0.261081
564.868164	0.260836
565.224370	0.260236
565.580520	0.261179
565.936615	0.260823
566.292654	0.263135
566.648638	0.260102
567.004567	0.260482
567.360441	0.260986
567.716260	0.262689
568.072023	0.259910
568.427732	0.260312
568.783385	0.262729
569.138982	0.260588
569.494525	0.259684
569.850013	0.262292
570.205445	0.260513
570.560823	0.262817
570.916145	0.264840
571.271412	0.262742
571.626625	0.263802
571.981782	0.264227
572.336884	0.264761
572.691931	0.264673
573.046923	0.265361
573.401860	0.266917
573.756743	0.268213
574.111570	0.266888
574.466342	0.267150
574.821059	0.266278
575.175722	0.268772
575.530330	0.268390
575.884882	0.268676
576.239380	0.270758
576.593823	0.271035
576.948211	0.270144
577.302544	0.273429
577.656823	0.272940
578.011047	0.272789
578.365216	0.273302
578.719330	0.275390
579.073389	0.274892
579.427394	0.276312
579.781344	0.276787
580.135239	0.278569
580.489080	0.277855
580.842866	0.280882
581.196597	0.280585
581.550273	0.279222
581.903895	0.280229
582.257463	0.278084
582.610975	0.281698
582.964434	0.280943
583.317837	0.283183
583.671186	0.283943
584.024481	0.283987
584.377721	0.286324
584.730906	0.286775
585.084037	0.285999
585.437113	0.287774
585.790135	0.286864
586.143103	0.289761
586.496016	0.291063
586.848874	0.288660
587.201679	0.288925
587.554428	0.292505
587.907124	0.291038
588.259765	0.291717
588.612352	0.292315
588.964884	0.295991
589.317362	0.295528
589.669786	0.295621
590.022155	0.293903
590.374470	0.293149
590.726731	0.295171
591.078937	0.300050
591.431090	0.295972
591.783188	0.300608
592.135232	0.300613
592.487222	0.301001
592.839157	0.298852
593.191038	0.301283
593.542866	0.302981
593.894639	0.306922
594.246358	0.304763
594.598022	0.303991
594.949633	0.307737
595.301190	0.308566
595.652692	0.307458
596.004141	0.304028
596.355535	0.311520
596.706876	0.312162
597.058162	0.314615
597.409395	0.311984
597.760573	0.309800
598.111698	0.312899
598.462768	0.313264
598.813785	0.314644
599.164748	0.315826
599.515657	0.316349
599.866511	0.319818
600.217312	0.314591
600.568060	0.319952
600.918753	0.316552
601.269392	0.317469
601.619978	0.320560
601.970510	0.318233
602.320988	0.318330
602.671412	0.315948
603.021783	0.318008
603.372100	0.320081
603.722363	0.319706
604.072572	0.320224
604.422728	0.320061
604.772830	0.322185
605.122878	0.322095
605.472872	0.322627
605.822813	0.320699
606.172701	0.323388
606.522534	0.321148
606.872314	0.320830
607.222041	0.321451
607.571714	0.319786
607.921333	0.320923
608.270899	0.321125
608.620411	0.317652
608.969870	0.321522
609.319276	0.321668
609.668627	0.321809
610.017926	0.319982
610.367171	0.318688
610.716362	0.319530
611.065500	0.319551
611.414585	0.318284
611.763616	0.318730
612.112594	0.319215
612.461518	0.318813
612.810389	0.316537
613.159207	0.318658
613.507971	0.320482
613.856682	0.316323
614.205340	0.317975
614.553945	0.314426
614.902496	0.318517
615.250994	0.316560
615.599439	0.317421
615.947830	0.317005
616.296169	0.317551
616.644454	0.317047
616.992686	0.317123
617.340864	0.315201
617.688990	0.318487
618.037063	0.315432
618.385082	0.317240
618.733048	0.314035
619.080961	0.316176
619.428821	0.315614
619.776628	0.315246
620.124382	0.317396
620.472083	0.317636
620.819731	0.317029
621.167326	0.320577
621.514868	0.320284
621.862357	0.325143
622.209793	0.324359
622.557176	0.326510
622.904506	0.327692
623.251783	0.330192
623.599007	0.332576
623.946179	0.331886
624.293297	0.333812
624.640363	0.337318
624.987376	0.338199
625.334336	0.340783
625.681243	0.342941
626.028097	0.343501
626.374899	0.344532
626.721647	0.345139
627.068343	0.347998
627.414987	0.349161
627.761577	0.351069
628.108115	0.349488
628.454600	0.354644
628.801032	0.351864
629.147412	0.354558
629.493739	0.354418
629.840014	0.357622
630.186236	0.354573
630.532405	0.360202
630.878521	0.357962
631.224585	0.360018
631.570597	0.364022
631.916556	0.361914
632.262462	0.362126
632.608316	0.364188
632.954117	0.365071
633.299866	0.365925
633.645562	0.366405
633.991206	0.370679
634.336797	0.373531
634.682336	0.376030
635.027823	0.377235
635.373257	0.378421
635.718639	0.381610
636.063968	0.380667
636.409245	0.386606
636.754470	0.386892
637.099642	0.389262
637.444762	0.393168
637.789829	0.392088
638.134845	0.395375
638.479808	0.396346
638.824719	0.396029
639.169577	0.400116
639.514383	0.398701
639.859137	0.403211
640.203839	0.403205
640.548489	0.403237
640.893086	0.404453
641.237632	0.406662
641.582125	0.405092
641.926566	0.406788
642.270955	0.405953
642.615292	0.406979
642.959576	0.405972
643.303809	0.406819
643.647990	0.405900
643.992118	0.406575
644.336195	0.410275
644.680219	0.408315
645.024192	0.409038
645.368112	0.403154
645.711981	0.401731
646.055797	0.397191
646.399562	0.399631
646.743274	0.391865
647.086935	0.389443
647.430544	0.389158
647.774101	0.388205
648.117606	0.387725
648.461059	0.388093
648.804460	0.390975
649.147810	0.395990
649.491108	0.397623
649.834354	0.399036
650.177548	0.404542
650.520690	0.409797
650.863781	0.411073
651.206820	0.410179
651.549807	0.415476
651.892742	0.418714
652.235626	0.418716
652.578458	0.419432
652.921238	0.425357
653.263967	0.423150
653.606644	0.427361
653.949269	0.427019
654.291843	0.430874
654.634365	0.427670
654.976836	0.430893
655.319255	0.431150
655.661622	0.432679
656.003938	0.432697
656.346203	0.435782
656.688416	0.433338
657.030577	0.436952
657.372687	0.439307
657.714746	0.439880
658.056753	0.436638
658.398708	0.440426
658.740612	0.441609
659.082465	0.437823
659.424266	0.438232
659.766016	0.437909
660.107715	0.440787
660.449362	0.439632
660.790958	0.439777
661.132503	0.440367
661.473996	0.438619
661.815438	0.439142
662.156829	0.439336
662.498168	0.440072
662.839456	0.441318
663.180693	0.439369
663.521879	0.439460
663.863013	0.439790
664.204097	0.438650
664.545129	0.435497
664.886110	0.435974
665.227040	0.433246
665.567918	0.435881
665.908746	0.433843
666.249522	0.433821
666.590248	0.434750
666.930922	0.432917
667.271545	0.431528
667.612118	0.431759
667.952639	0.433110
668.293109	0.431489
668.633528	0.434406
668.973896	0.434282
669.314213	0.435383
669.654480	0.436829
669.994695	0.436815
670.334859	0.438513
670.674973	0.438029
671.015035	0.438202
671.355047	0.438302
671.695008	0.439188
672.034918	0.440660
672.374777	0.440345
672.714585	0.441424
673.054342	0.441078
673.394049	0.441719
673.733705	0.439061
674.073310	0.440304
674.412864	0.443037
674.752368	0.443879
675.091820	0.443987
675.431223	0.448516
675.770574	0.448191
676.109875	0.451277
676.449125	0.451312
676.788324	0.453362
677.127473	0.458716
677.466571	0.458361
677.805619	0.460078
678.144616	0.461437
678.483562	0.463049
678.822458	0.465521
679.161303	0.467274
679.500098	0.466556
679.838842	0.468475
680.177535	0.468387
680.516179	0.466733
680.854771	0.466108
681.193314	0.459371
681.531805	0.450621
681.870247	0.439391
682.208638	0.431626
682.546978	0.430752
682.885268	0.432026
683.223508	0.438766
683.561697	0.442394
683.899836	0.444973
684.237925	0.449013
684.575963	0.450713
684.913951	0.453940
685.251889	0.449817
685.589776	0.452018
685.927614	0.454496
686.265401	0.448463
686.603137	0.449894
686.940824	0.444078
687.278460	0.442806
687.616046	0.442226
687.953582	0.436231
688.291068	0.437859
688.628504	0.433606
688.965889	0.436110
689.303224	0.439967
689.640510	0.443896
689.977745	0.450109
690.314930	0.457893
690.652065	0.462117
690.989150	0.469931
691.326185	0.475857
691.663170	0.480829
692.000105	0.487703
692.336990	0.494923
692.673825	0.497033
693.010610	0.503808
693.347345	0.509430
693.684030	0.510249
694.020665	0.515865
694.357251	0.524505
694.693786	0.524131
695.030272	0.528424
695.366707	0.531757
695.703093	0.535345
696.039429	0.532404
696.375716	0.534112
696.711952	0.537582
697.048139	0.539514
697.384276	0.541251
697.720363	0.539148
698.056400	0.538700
698.392388	0.544516
698.728326	0.547071
699.064214	0.549673
699.400053	0.550182
699.735842	0.554429
700.071581	0.556541
700.407270	0.559737
700.742910	0.562072
701.078501	0.569220
701.414042	0.568924
701.749533	0.572458
702.084974	0.581191
702.420366	0.573238
702.755709	0.581262
703.091002	0.588920
703.426246	0.581973
703.761440	0.588217
704.096584	0.592413
704.431679	0.589922
704.766725	0.592210
705.101721	0.593131
705.436668	0.589164
705.771565	0.596255
706.106413	0.593760
706.441212	0.588241
706.775961	0.587333
707.110661	0.590062
707.445311	0.586376
707.779913	0.584158
708.114465	0.582561
708.448967	0.578783
708.783421	0.571153
709.117825	0.565895
709.452180	0.566250
709.786485	0.559886
710.120742	0.549797
710.454949	0.551355
710.789107	0.544124
711.123216	0.535109
711.457275	0.536862
711.791286	0.526974
712.125247	0.526126
712.459159	0.537507
712.793023	0.530449
713.126837	0.533483
713.460602	0.534746
713.794318	0.543794
714.127985	0.542673
714.461602	0.552051
714.795171	0.555669
715.128691	0.563275
715.462162	0.570590
715.795584	0.576246
716.128957	0.579243
716.462281	0.585957
716.795556	0.589190
717.128782	0.594176
717.461960	0.603792
717.795088	0.602053
718.128167	0.608087
718.461198	0.617254
718.794180	0.617592
719.127113	0.620886
719.459997	0.623726
719.792833	0.631221
720.125619	0.630573
720.458357	0.637268
720.791046	0.637368
721.123686	0.641022
721.456278	0.647369
721.788821	0.644877
722.121315	0.648950
722.453761	0.652524
722.786158	0.651181
723.118506	0.647501
723.450805	0.655004
723.783056	0.651057
724.115259	0.648136
724.447412	0.647711
724.779518	0.649623
725.111574	0.647942
725.443582	0.644028
725.775542	0.645931
726.107453	0.637963
726.439315	0.638182
726.771129	0.636625
727.102895	0.629815
727.434612	0.623155
727.766281	0.620956
728.097901	0.620851
728.429473	0.619854
728.760996	0.618404
729.092471	0.618177
729.423897	0.623141
729.755276	0.620789
730.086606	0.620921
730.417887	0.616336
730.749120	0.607027
731.080305	0.598081
731.411442	0.593758
731.742530	0.598568
732.073570	0.598006
732.404562	0.590609
732.735506	0.591715
733.066401	0.596043
733.397249	0.605406
733.728048	0.616300
734.058798	0.628948
734.389501	0.640204
734.720156	0.649535
735.050762	0.657838
735.381320	0.658219
735.711831	0.667667
736.042293	0.672348
736.372707	0.668481
736.703073	0.672768
737.033391	0.675476
737.363661	0.672082
737.693883	0.667138
738.024056	0.666836
738.354182	0.665996
738.684260	0.656436
739.014290	0.652095
739.344272	0.653282
739.674207	0.645810
740.004093	0.646286
740.333931	0.646490
740.663722	0.646867
740.993464	0.647174
741.323159	0.650468
741.652806	0.655895
741.982405	0.660276
742.311956	0.664788
742.641460	0.667067
742.970915	0.670132
743.300323	0.678617
743.629683	0.685648
743.958996	0.686640
744.288260	0.690784
744.617477	0.697580
744.946647	0.697817
745.275768	0.703334
745.604842	0.703239
745.933869	0.713139
746.262847	0.713926
746.591778	0.707215
746.920662	0.713990
747.249498	0.720255
747.578286	0.711441
747.907027	0.707136
748.235720	0.708665
748.564365	0.702811
748.892963	0.702821
749.221514	0.705896
749.550017	0.711182
749.878473	0.710985
750.206881	0.717780
750.535242	0.718184
750.863555	0.717668
751.191821	0.719123
751.520039	0.722071
751.848210	0.727469
752.176334	0.719504
752.504411	0.718825
752.832440	0.726764
753.160421	0.730505
753.488356	0.729447
753.816243	0.725886
754.144082	0.735146
754.471875	0.738191
754.799620	0.734059
755.127318	0.735852
755.454969	0.735275
755.782572	0.734473
756.110129	0.740471
756.437638	0.741693
756.765100	0.738345
757.092515	0.737520
757.419882	0.736475
757.747203	0.741072
758.074477	0.740856
758.401703	0.736791
758.728882	0.732287
759.056014	0.731138
759.383099	0.730329
759.710138	0.731962
760.037129	0.728773
760.364073	0.722780
760.690970	0.724123
761.017820	0.730418
761.344623	0.725196
761.671379	0.717118
761.998088	0.705541
762.324751	0.682897
762.651366	0.641536
762.977935	0.575634
763.304456	0.523311
763.630931	0.513702
763.957359	0.552967
764.283740	0.597023
764.610074	0.624056
764.936362	0.654823
765.262602	0.680815
765.588796	0.701620
765.914943	0.720435
766.241044	0.737597
766.567097	0.744572
766.893104	0.753127
767.219064	0.760443
767.544978	0.767191
767.870845	0.780593
768.196665	0.783805
768.522438	0.781614
768.848165	0.782645
769.173846	0.792669
769.499479	0.796745
769.825066	0.799974
770.150607	0.804988
770.476101	0.799860
770.801548	0.800967
771.126949	0.812362
771.452303	0.816709
771.777611	0.814770
772.102872	0.814860
772.428087	0.820409
772.753256	0.823189
773.078378	0.825625
773.403453	0.834672
773.728482	0.838825
774.053465	0.831356
774.378401	0.835573
774.703291	0.844139
775.028135	0.843035
775.352932	0.845150
775.677683	0.848725
776.002388	0.848311
776.327046	0.848510
776.651658	0.851758
776.976224	0.854109
777.300743	0.854298
777.625216	0.857339
777.949643	0.859085
778.274024	0.859133
778.598359	0.860165
778.922647	0.859206
779.246889	0.859304
779.571086	0.863481
779.895236	0.866005
780.219339	0.863513
780.543397	0.860479
780.867409	0.857699
781.191374	0.860156
781.515294	0.862119
781.839167	0.859651
782.162995	0.864539
782.486776	0.861339
782.810511	0.863016
783.134201	0.865497
783.457844	0.863341
783.781441	0.865226
784.104993	0.872089
784.428498	0.873398
784.751958	0.867731
785.075372	0.871908
785.398739	0.874824
785.722061	0.871366
786.045337	0.866240
786.368568	0.871466
786.691752	0.874136
787.014891	0.859992
787.337983	0.850373
787.661030	0.843552
787.984031	0.824895
788.306987	0.813185
788.629897	0.815803
788.952760	0.818775
789.275579	0.823099
789.598351	0.838364
789.921078	0.851636
790.243759	0.854074
790.566395	0.858319
790.888984	0.865409
791.211529	0.870676
791.534027	0.873418
791.856480	0.875396
792.178888	0.881694
792.501249	0.883743
792.823566	0.884581
793.145836	0.884478
793.468062	0.885043
793.790241	0.886409
794.112375	0.884307
794.434464	0.880910
794.756507	0.879006
795.078505	0.879853
795.400457	0.873565
795.722364	0.863068
796.044226	0.854670
796.366042	0.854528
796.687812	0.856935
797.009538	0.854592
797.331218	0.856621
797.652852	0.862173
797.974442	0.866129
798.295986	0.866118
798.617484	0.868372
798.938938	0.873325
799.260346	0.878084
799.581709	0.880401
799.903026	0.881046
800.224299	0.883189
800.545526	0.886368
800.866708	0.890731
801.187845	0.894561
801.508936	0.894687
801.829983	0.891569
802.150984	0.894782
802.471940	0.899986
802.792851	0.898635
803.113717	0.900751
803.434538	0.899298
803.755314	0.899876
804.076045	0.902369
804.396731	0.901086
804.717372	0.902488
805.037967	0.902532
805.358518	0.900212
805.679024	0.898368
805.999485	0.898039
806.319901	0.898644
806.640272	0.899694
806.960598	0.898092
807.280879	0.895733
807.601115	0.894225
807.921306	0.897649
808.241453	0.897352
808.561554	0.896011
808.881611	0.895972
809.201623	0.897494
809.521590	0.897933
809.841513	0.898563
810.161390	0.897728
810.481223	0.899653
810.801011	0.903456
811.120755	0.904261
811.440453	0.902761
811.760107	0.901403
812.079716	0.902362
812.399281	0.904900
812.718801	0.908209
813.038276	0.909628
813.357707	0.908391
813.677093	0.905101
813.996434	0.909172
814.315731	0.910491
814.634983	0.910906
814.954191	0.909548
815.273354	0.907385
815.592473	0.902508
815.911547	0.903352
816.230577	0.899967
816.549562	0.898253
816.868502	0.898525
817.187399	0.895692
817.506250	0.889808
817.825058	0.892494
818.143821	0.887389
818.462539	0.883594
818.781213	0.876083
819.099843	0.863726
819.418429	0.849626
819.736970	0.832082
820.055466	0.813472
820.373919	0.786958
820.692327	0.755842
821.010691	0.721759
821.329011	0.646621
821.647286	0.532568
821.965517	0.420125
822.283704	0.378119
822.601847	0.380075
822.919945	0.415461
823.237999	0.448119
823.556010	0.493902
823.873976	0.548961
824.191897	0.598600
824.509775	0.640206
824.827609	0.685139
825.145398	0.707520
825.463144	0.709984
825.780845	0.692958
826.098502	0.674583
826.416116	0.629528
826.733685	0.586952
827.051210	0.578346
827.368692	0.592785
827.686129	0.629354
828.003522	0.681706
828.320872	0.728205
828.638177	0.771128
828.955439	0.804947
829.272656	0.825319
829.589830	0.842805
829.906960	0.856986
830.224046	0.870235
830.541088	0.879851
830.858086	0.883803
831.175041	0.889411
831.491952	0.890363
831.808819	0.885612
832.125642	0.879063
832.442421	0.864937
832.759157	0.843457
833.075849	0.798376
833.392497	0.735004
833.709101	0.695477
834.025662	0.704456
834.342179	0.736270
834.658653	0.774101
834.975083	0.810017
835.291469	0.835076
835.607811	0.857851
835.924110	0.873080
836.240366	0.890289
836.556578	0.903992
836.872746	0.910631
837.188871	0.916894
837.504952	0.922162
837.820990	0.925162
838.136984	0.928367
838.452935	0.932535
838.768842	0.933532
839.084706	0.926557
839.400526	0.901213
839.716303	0.862045
840.032037	0.840505
840.347727	0.844020
840.663373	0.861983
840.978977	0.881914
841.294537	0.905502
841.610054	0.919707
841.925527	0.928423
842.240957	0.934557
842.556344	0.941917
842.871687	0.947913
843.186987	0.951626
843.502244	0.952297
843.817458	0.953309
844.132629	0.956440
844.447756	0.960651
844.762840	0.961708
845.077881	0.959685
845.392879	0.962550
845.707833	0.963964
846.022745	0.965821
846.337613	0.965210
846.652438	0.967290
846.967221	0.965525
847.281960	0.966350
847.596656	0.967719
847.911309	0.966505
848.225919	0.967927
848.540485	0.968757
848.855009	0.969539
849.169490	0.970419
849.483928	0.970074
849.798323	0.969834
850.112675	0.970721
850.426984	0.970092
850.741251	0.971296
851.055474	0.971076
851.369654	0.969265
851.683792	0.970389
851.997887	0.970524
852.311938	0.971792
852.625947	0.970359
852.939914	0.968820
853.253837	0.970638
853.567718	0.970866
853.881555	0.972274
854.195350	0.967996
854.509103	0.971860
854.822812	0.970225
855.136479	0.971905
855.450103	0.970849
855.763685	0.969432
856.077224	0.969842
856.390720	0.971324
856.704173	0.972210
857.017584	0.969495
857.330953	0.968226
857.644278	0.968174
857.957561	0.970344
858.270802	0.970678
858.584000	0.969639
858.897155	0.967785
859.210268	0.969037
859.523339	0.969449
859.836367	0.971475
860.149352	0.971968
860.462295	0.969479
860.775195	0.971564
861.088054	0.970754
861.400869	0.970611
861.713642	0.970702
862.026373	0.970947
862.339062	0.972107
862.651708	0.968764
862.964312	0.968983
863.276873	0.970383
863.589392	0.969263
863.901869	0.967380
864.214303	0.967166
864.526696	0.965015
864.839045	0.965434
865.151353	0.963153
865.463619	0.963836
865.775842	0.963964
866.088023	0.963279
866.400162	0.961674
866.712258	0.963496
867.024313	0.964041
867.336325	0.964158
867.648296	0.964296
867.960224	0.963940
868.272110	0.963138
868.583954	0.965440
868.895755	0.965377
869.207515	0.962048
869.519233	0.960976
869.830909	0.963306
870.142542	0.963995
870.454134	0.962524
870.765684	0.962300
871.077191	0.958611
871.388657	0.960711
871.700081	0.959165
872.011463	0.959815
872.322803	0.960228
872.634101	0.958997
872.945357	0.955911
873.256571	0.954619
873.567744	0.954890
873.878874	0.955324
874.189963	0.953318
874.501010	0.952462
874.812015	0.951576
875.122979	0.953613
875.433900	0.954789
875.744780	0.955624
876.055618	0.953372
876.366415	0.951910
876.677169	0.951465
876.987882	0.953883
877.298554	0.953358
877.609183	0.949441
877.919771	0.947670
878.230317	0.945865
878.540822	0.942900
878.851285	0.937523
879.161707	0.930281
879.472087	0.918380
879.782425	0.902347
880.092722	0.870412
880.402977	0.819325
880.713191	0.760373
881.023363	0.703837
881.333494	0.671268
881.643583	0.643584
881.953631	0.642080
882.263637	0.671196
882.573602	0.710028
882.883526	0.734799
883.193408	0.757887
883.503248	0.778849
883.813048	0.805334
884.122806	0.834136
884.432522	0.857143
884.742197	0.876037
885.051831	0.885721
885.361424	0.895175
885.670975	0.906468
885.980485	0.917848
886.289954	0.922222
886.599382	0.928342
886.908768	0.932265
887.218113	0.937064
887.527417	0.941421
887.836680	0.944927
888.145901	0.946451
888.455082	0.947815
888.764221	0.952888
889.073319	0.954425
889.382376	0.954554
889.691392	0.954374
890.000366	0.954143
890.309300	0.955386
890.618193	0.955643
890.927044	0.953845
891.235855	0.953586
891.544625	0.953798
891.853353	0.954448
892.162041	0.950899
892.470687	0.944925
892.779293	0.941435
893.087858	0.937053
893.396381	0.929711
893.704864	0.916004
894.013306	0.893732
894.321707	0.867574
894.630068	0.855204
894.938387	0.850210
895.246665	0.850971
895.554903	0.862899
895.863100	0.875426
896.171256	0.893101
896.479371	0.909818
896.787446	0.923101
897.095480	0.928366
897.403473	0.931736
897.711425	0.935799
898.019336	0.943840
898.327207	0.945820
898.635038	0.946976
898.942827	0.948377
899.250576	0.950669
899.558284	0.955145
899.865952	0.956268
900.173579	0.956281
900.481165	0.956325
900.788711	0.961282
901.096216	0.963940
901.403681	0.963847
901.711105	0.964531
902.018489	0.965380
902.325832	0.963741
902.633135	0.963366
902.940397	0.957109
903.247619	0.946799
903.554800	0.921769
903.861941	0.883483
904.169041	0.850350
904.476101	0.833894
904.783121	0.834566
905.090100	0.850550
905.397039	0.870312
905.703938	0.891744
906.010796	0.910474
906.317614	0.926729
906.624391	0.937385
906.931129	0.946262
907.237826	0.954457
907.544483	0.960262
907.851099	0.964693
908.157675	0.969182
908.464211	0.971489
908.770707	0.974639
909.077163	0.975870
909.383578	0.975694
909.689954	0.977281
909.996289	0.977063
910.302584	0.979136
910.608839	0.981249
910.915054	0.979165
911.221229	0.979148
911.527363	0.978331
911.833458	0.978435
912.139513	0.978444
912.445527	0.977328
912.751502	0.975150
913.057436	0.975552
913.363331	0.971402
913.669186	0.968719
913.975000	0.963939
914.280775	0.957688
914.586510	0.950542
914.892205	0.939651
915.197859	0.918932
915.503475	0.892386
915.809050	0.874300
916.114585	0.868754
916.420081	0.867540
916.725536	0.864058
917.030952	0.871696
917.336328	0.883378
917.641665	0.898069
917.946961	0.912220
918.252218	0.923235
918.557435	0.930854
918.862612	0.940337
919.167750	0.944735
919.472848	0.950051
919.777906	0.954935
920.082925	0.961048
920.387904	0.964776
920.692843	0.964149
920.997743	0.965079
921.302603	0.970386
921.607423	0.971143
921.912204	0.973383
922.216946	0.972759
922.521647	0.975143
922.826310	0.975897
923.130932	0.978158
923.435516	0.980278
923.740059	0.981409
924.044564	0.979152
924.349028	0.982447
924.653454	0.983488
924.957840	0.986719
925.262186	0.985198
925.566493	0.984496
925.870761	0.986348
926.174989	0.986850
926.479178	0.989619
926.783328	0.988995
927.087438	0.989342
927.391509	0.988940
927.695541	0.991313
927.999533	0.989572
928.303486	0.990921
928.607400	0.991157
928.911275	0.989422
929.215110	0.991147
929.518906	0.991148
929.822663	0.990625
930.126381	0.992353
930.430060	0.991552
930.733699	0.991088
931.037299	0.990630
931.340861	0.991688
931.644383	0.991036
931.947866	0.989378
932.251309	0.992040
932.554714	0.990741
932.858080	0.992117
933.161407	0.990182
933.464694	0.992632
933.767943	0.990176
934.071153	0.990771
934.374323	0.991304
934.677455	0.990765
934.980548	0.991920
935.283602	0.991570
935.586617	0.992617
935.889593	0.992417
936.192530	0.991688
936.495428	0.991987
936.798287	0.990726
937.101108	0.991304
937.403890	0.989844
937.706632	0.990016
938.009336	0.987478
938.312002	0.986785
938.614628	0.985202
938.917216	0.984123
939.219765	0.983607
939.522275	0.983899
939.824747	0.983688
940.127179	0.983373
940.429573	0.985558
940.731929	0.985780
941.034246	0.985125
941.336524	0.986662
941.638763	0.987073
941.940964	0.988148
942.243126	0.988436
942.545250	0.987897
942.847335	0.989279
943.149381	0.988723
943.451389	0.989430
943.753359	0.989195
944.055290	0.991256
944.357182	0.991017
944.659036	0.988488
944.960851	0.990593
945.262628	0.990636
945.564367	0.991676
945.866067	0.990698
946.167729	0.991225
946.469352	0.991224
946.770937	0.990382
947.072484	0.991109
947.373992	0.990243
947.675462	0.990647
947.976893	0.991188
948.278286	0.991461
948.579641	0.993121
948.880958	0.991884
949.182236	0.991819
949.483476	0.991781
949.784678	0.991104
950.085841	0.991341
950.386967	0.990861
950.688054	0.990871
950.989103	0.992384
951.290114	0.989309
951.591087	0.989498
951.892021	0.991460
952.192917	0.989575
952.493776	0.989265
952.794596	0.989146
953.095378	0.989335
953.396122	0.988510
953.696828	0.989234
953.997496	0.991092
954.298126	0.992403
954.598718	0.991109
954.899272	0.991676
955.199788	0.991036
955.500266	0.992440
955.800706	0.993053
956.101108	0.993233
956.401472	0.994160
956.701798	0.994078
957.002087	0.993447
957.302337	0.993704
957.602550	0.994145
957.902724	0.994658
958.202861	0.994689
958.502960	0.994886
958.803022	0.993654
959.103045	0.996670
959.403031	0.996043
959.702979	0.995288
960.002889	0.996028
960.302762	0.995534
960.602596	0.995555
960.902393	0.994146
961.202153	0.997674
961.501875	0.996686
961.801559	0.995012
962.101205	0.995942
962.400814	0.996213
962.700385	0.995962
962.999918	0.995693
963.299414	0.996719
963.598873	0.995554
963.898293	0.997421
964.197677	0.996852
964.497022	0.995985
964.796331	0.997242
965.095601	0.998411
965.394835	0.995780
965.694030	0.996262
965.993189	0.997072
966.292309	0.996697
966.591393	0.996468
966.890439	0.997968
967.189447	0.997467
967.488419	0.997130
967.787353	0.995891
968.086249	0.996700
968.385108	0.997461
968.683930	0.997048
968.982714	0.996784
969.281462	0.997590
969.580172	0.996281
969.878844	0.996906
970.177480	0.996780
970.476078	0.997446
970.774639	0.998029
971.073162	0.996532
971.371649	0.995931
971.670098	0.996274
971.968510	0.997626
972.266885	0.995548
972.565223	0.998260
972.863524	0.995784
973.161788	0.995247
973.460014	0.999095
973.758204	0.995371
974.056356	0.996630
974.354471	0.993387
974.652550	0.996407
974.950591	0.995975
975.248595	0.997122
975.546563	0.996932
975.844493	0.998789
976.142386	0.996022
976.440243	0.996855
976.738062	0.998049
977.035845	0.998527
977.333590	0.996019
977.631299	0.997973
977.928971	0.996126
978.226606	0.996161
978.524204	0.995789
978.821765	0.998654
979.119290	0.996321
979.416777	0.998128
979.714228	0.997087
980.011642	0.997108
980.309020	0.997688
980.606360	0.996652
980.903664	0.998601
981.200931	0.996254
981.498162	0.995142
981.795356	0.996051
982.092513	0.994091
982.389633	0.994776
982.686717	0.991617
982.983764	0.992157
983.280775	0.990713
983.577749	0.991953
983.874686	0.991876
984.171587	0.992702
984.468451	0.994376
984.765279	0.995255
985.062070	0.993389
985.358824	0.996314
985.655543	0.994975
985.952224	0.995321
986.248869	0.995424
986.545478	0.997167
986.842050	0.998510
987.138586	0.994933
987.435086	0.998303
987.731549	0.997891
988.027975	0.997736
988.324366	0.996836
988.620719	0.998120
988.917037	0.997165
989.213318	0.997582
989.509563	0.997297
989.805772	0.998625
990.101944	0.997189
990.398080	0.996123
990.694180	0.997242
990.990244	0.996921
991.286271	0.998082
991.582262	0.998196
991.878217	0.998568
992.174136	0.997556
992.470019	0.998966
992.765865	0.998463
993.061676	0.999090
993.357450	0.997565
993.653188	0.997455
993.948890	0.997059
994.244556	0.996706
994.540186	0.997353
994.835780	0.996789
995.131337	0.997347
995.426859	0.996770
995.722345	0.997470
996.017795	0.997006
996.313208	0.996107
996.608586	0.996009
996.903928	0.996595
997.199234	0.996286
997.494504	0.996672
997.789738	0.997127
998.084936	0.996919
998.380099	0.998736
998.675225	0.996803
998.970316	0.997752
999.265371	0.997353
999.560390	0.997992
999.855373	0.998829
1000.150320	0.998864
1000.445232	0.998136
1000.740108	0.997104
1001.034948	0.998863
1001.329752	0.998634
1001.624521	0.998701
1001.919254	0.997542
1002.213951	0.998494
1002.508613	0.996691
1002.803239	0.999565
1003.097829	0.998910
1003.392384	0.999742
1003.686903	0.998153
1003.981386	0.999137
1004.275834	0.999798
1004.570246	0.998543
1004.864623	0.999870
1005.158964	0.998673
1005.453270	0.998816
1005.747540	0.996071
1006.041775	0.998842
1006.335974	0.999529
1006.630138	0.999652
1006.924266	0.999494
1007.218359	0.999627
1007.512416	0.998396
1007.806438	0.999878
1008.100425	0.998907
1008.394376	0.998846
1008.688292	0.999005
1008.982172	1.000465
1009.276017	0.999840
1009.569827	0.998755
1009.863602	0.999358
1010.157341	1.000331
1010.451045	0.999103
1010.744714	0.999113
1011.038347	0.999273
1011.331945	0.999139
1011.625508	0.998166
1011.919036	0.999180
1012.212528	0.999433
1012.505986	0.997800
1012.799408	0.997560
1013.092795	0.999052
1013.386147	0.999576
1013.679464	0.998720
1013.972745	0.998424
1014.265992	0.997640
1014.559204	0.999540
1014.852380	0.997397
1015.145521	0.999620
1015.438628	0.998369
1015.731699	0.998019
1016.024736	0.999280
1016.317737	0.999483
1016.610703	0.999067
1016.903635	0.998870
1017.196531	0.998298
1017.489393	1.000065
1017.782219	0.998374
1018.075011	0.999182
1018.367768	0.998779
1018.660490	0.999939
1018.953177	0.999939
1019.245829	0.999939
