Dividing Wavelength (nm)	Counts (n)	Blue Motor Position (mm): 0.000000	Red Motor Position (mm): 37.700000	
326.493990	1.001502
326.888308	1.001502
327.282561	1.001502
327.676750	1.000099
328.070874	0.999482
328.464933	0.999268
328.858929	0.999168
329.252859	0.998516
329.646726	0.999319
330.040528	1.000307
330.434265	0.999301
330.827938	1.000653
331.221547	1.000403
331.615091	1.000356
332.008571	1.000721
332.401986	1.000756
332.795338	1.001480
333.188625	0.999003
333.581847	0.999925
333.975006	0.999226
334.368100	0.999321
334.761129	0.999529
335.154095	1.000099
335.546996	0.998612
335.939833	0.994883
336.332606	0.996444
336.725315	0.998098
337.117960	0.998677
337.510540	0.996554
337.903056	0.996472
338.295508	0.997034
338.687896	0.997546
339.080220	0.997137
339.472480	0.997295
339.864676	0.997104
340.256807	0.996986
340.648875	0.998216
341.040879	0.996908
341.432818	0.997385
341.824694	0.996582
342.216506	0.997271
342.608253	0.996490
342.999937	0.996740
343.391557	0.996885
343.783113	0.996798
344.174605	0.997411
344.566033	0.997131
344.957397	0.996816
345.348697	0.996279
345.739934	0.996634
346.131106	0.996518
346.522215	0.996788
346.913260	0.996128
347.304241	0.997080
347.695159	0.996157
348.086012	0.996466
348.476802	0.997808
348.867528	0.996826
349.258191	0.995653
349.648789	0.997825
350.039324	0.996820
350.429796	0.998287
350.820203	0.996635
351.210548	0.998163
351.600828	0.996255
351.991045	0.996730
352.381198	0.995341
352.771288	0.998013
353.161314	0.996254
353.551276	0.998431
353.941175	0.996902
354.331010	0.995740
354.720782	0.997546
355.110490	0.996887
355.500135	0.997576
355.889717	0.996817
356.279235	0.996639
356.668689	0.997777
357.058080	0.995911
357.447408	0.999880
357.836672	0.997467
358.225873	0.997856
358.615010	0.998182
359.004084	0.996764
359.393095	0.997599
359.782043	0.997117
360.170927	0.999149
360.559748	0.998117
360.948505	0.996218
361.337199	0.997543
361.725830	0.996848
362.114398	0.995395
362.502903	0.997818
362.891344	0.997946
363.279722	0.996567
363.668037	0.996998
364.056289	0.996845
364.444478	0.997555
364.832603	0.999337
365.220665	0.996478
365.608665	0.997240
365.996601	0.996630
366.384474	0.997845
366.772284	0.996844
367.160031	0.997848
367.547715	0.996416
367.935336	0.997737
368.322893	0.997147
368.710388	0.995862
369.097820	0.996011
369.485189	0.997691
369.872495	0.996104
370.259738	0.995332
370.646918	0.997605
371.034035	0.997239
371.421090	0.996677
371.808081	0.996850
372.195010	0.997577
372.581875	0.998024
372.968678	0.997508
373.355418	0.997063
373.742096	0.996224
374.128710	0.998486
374.515262	0.997341
374.901751	0.997908
375.288177	0.997406
375.674540	0.997248
376.060841	0.996488
376.447079	0.998078
376.833254	0.996354
377.219367	0.997729
377.605417	0.997616
377.991404	0.998252
378.377329	0.997289
378.763191	0.997637
379.148991	0.998284
379.534727	0.997503
379.920402	0.998450
380.306013	0.997759
380.691563	0.998924
381.077049	0.997377
381.462474	0.997663
381.847835	0.997386
382.233134	0.997853
382.618371	0.998328
383.003545	0.998078
383.388657	0.997181
383.773706	0.997791
384.158693	0.997633
384.543618	0.997816
384.928480	0.998421
385.313280	0.997662
385.698017	0.997993
386.082692	0.997847
386.467305	0.998504
386.851856	0.998127
387.236344	0.997734
387.620770	0.997003
388.005133	0.998504
388.389435	0.998638
388.773674	0.996950
389.157851	0.998470
389.541965	0.998477
389.926018	0.998133
390.310008	0.999678
390.693936	0.998677
391.077802	0.998072
391.461606	0.998296
391.845348	0.998247
392.229027	0.999612
392.612645	0.998076
392.996200	1.000022
393.379694	0.997472
393.763125	0.999299
394.146494	0.999565
394.529801	0.997974
394.913047	0.998899
395.296230	0.998298
395.679351	0.997539
396.062410	0.998392
396.445408	0.999156
396.828343	0.998333
397.211217	0.998095
397.594028	0.999632
397.976778	0.998171
398.359466	0.998622
398.742092	0.998674
399.124656	0.998002
399.507158	0.998663
399.889598	0.997593
400.271977	0.999327
400.654294	0.998481
401.036549	0.998860
401.418742	0.999409
401.800874	0.998302
402.182944	0.998661
402.564952	0.997455
402.946898	0.999725
403.328783	0.999337
403.710606	0.998836
404.092367	0.998332
404.474067	0.998431
404.855705	0.998417
405.237282	0.999225
405.618797	0.998946
406.000250	0.998448
406.381642	0.998787
406.762972	0.998117
407.144240	0.998946
407.525447	0.999212
407.906593	0.998152
408.287677	0.998975
408.668700	0.999781
409.049661	0.997898
409.430560	0.999572
409.811399	0.998043
410.192176	0.998375
410.572891	0.998861
410.953545	0.998835
411.334138	0.998038
411.714669	0.998663
412.095139	0.998757
412.475547	0.999860
412.855894	0.998712
413.236180	0.999238
413.616405	0.999617
413.996568	0.999627
414.376670	0.998333
414.756711	0.998262
415.136691	0.998958
415.516609	0.998843
415.896466	0.999023
416.276262	0.997910
416.655997	0.998824
417.035670	0.998744
417.415283	0.999434
417.794834	0.999192
418.174324	0.998564
418.553753	0.999067
418.933121	0.998315
419.312428	0.998112
419.691674	0.998450
420.070859	0.998490
420.449983	0.998706
420.829045	0.999326
421.208047	0.999206
421.586988	0.999276
421.965867	0.999287
422.344686	0.999699
422.723444	0.999537
423.102141	0.998882
423.480777	0.998893
423.859352	0.998962
424.237866	0.999061
424.616319	0.999655
424.994712	0.999692
425.373044	0.999862
425.751314	0.998860
426.129524	0.998879
426.507673	0.999741
426.885762	0.999803
427.263789	0.999252
427.641756	0.998663
428.019662	1.000362
428.397508	0.998726
428.775292	0.998121
429.153016	0.999018
429.530679	0.999872
429.908282	0.999507
430.285824	0.998270
430.663305	0.999070
431.040726	0.999056
431.418086	1.000412
431.795385	1.000047
432.172624	0.998782
432.549802	0.999987
432.926920	0.999725
433.303977	0.999789
433.680974	1.000149
434.057910	0.998619
434.434786	0.999484
434.811601	0.998785
435.188355	0.999079
435.565050	0.997840
435.941683	0.998802
436.318257	0.999939
436.694770	0.998157
437.071222	0.999398
437.447614	0.998470
437.823946	0.998935
438.200218	0.999562
438.576429	0.999038
438.952580	0.999804
439.328670	0.999558
439.704700	0.999479
440.080670	0.999611
440.456580	0.999661
440.832429	0.998887
441.208218	0.999949
441.583947	0.999447
441.959616	0.999104
442.335224	0.999077
442.710773	1.000171
443.086261	0.999142
443.461689	0.999116
443.837057	0.999308
444.212365	0.999354
444.587612	0.998738
444.962800	0.998788
445.337927	0.999459
445.712995	0.999164
446.088002	0.999508
446.462949	0.999873
446.837837	1.000033
447.212664	0.999555
447.587431	0.999166
447.962139	0.999400
448.336786	0.999021
448.711374	0.999977
449.085901	0.999381
449.460369	1.000242
449.834776	0.999333
450.209124	0.999412
450.583412	0.998901
450.957640	0.999628
451.331808	0.999416
451.705917	0.999737
452.079965	0.999130
452.453954	0.999297
452.827883	0.998963
453.201752	0.999380
453.575562	1.000448
453.949311	0.999889
454.323001	0.999008
454.696632	0.999426
455.070202	0.999499
455.443713	0.998773
455.817164	0.998970
456.190556	0.999819
456.563888	0.999057
456.937160	0.999217
457.310373	0.998919
457.683526	0.998843
458.056619	0.999104
458.429653	1.000084
458.802628	0.998634
459.175542	0.998793
459.548398	0.999750
459.921194	0.998918
460.293930	0.999782
460.666607	0.998993
461.039224	0.998595
461.411782	0.999155
461.784280	0.998977
462.156719	0.999980
462.529099	0.999745
462.901419	0.999436
463.273680	0.999058
463.645882	0.999347
464.018024	0.999513
464.390106	0.999867
464.762130	0.999472
465.134094	0.999461
465.505999	0.999972
465.877845	0.999507
466.249631	1.000513
466.621358	0.999885
466.993026	0.999474
467.364634	0.999353
467.736184	0.999170
468.107674	0.999407
468.479105	0.998636
468.850477	1.000868
469.221790	0.998740
469.593043	0.999351
469.964238	0.999927
470.335373	0.999583
470.706449	0.999653
471.077467	1.000193
471.448425	0.999085
471.819324	0.999930
472.190164	0.999454
472.560945	0.999411
472.931667	0.999591
473.302330	0.999319
473.672934	0.999812
474.043479	0.999082
474.413965	0.999103
474.784393	0.999125
475.154761	0.999344
475.525070	0.998402
475.895321	0.999587
476.265513	0.998964
476.635645	0.999248
477.005719	0.999984
477.375734	0.998438
477.745691	0.999601
478.115588	0.999002
478.485427	0.999472
478.855207	0.999270
479.224928	0.999480
479.594591	0.999731
479.964194	0.999880
480.333739	1.000031
480.703226	0.999535
481.072653	1.000328
481.442022	1.000779
481.811333	0.999067
482.180584	0.999768
482.549777	0.998894
482.918912	0.999788
483.287988	0.999352
483.657005	0.999515
484.025964	1.000219
484.394864	1.000191
484.763706	0.999206
485.132489	0.999635
485.501213	0.999101
485.869879	0.999597
486.238487	0.999541
486.607036	1.000013
486.975527	0.999049
487.343959	0.999068
487.712333	0.999379
488.080648	0.999009
488.448905	0.999266
488.817104	0.999566
489.185244	0.999572
489.553326	0.999616
489.921350	0.998769
490.289315	0.999669
490.657222	1.000070
491.025070	0.999833
491.392861	1.000356
491.760593	0.999526
492.128267	0.998933
492.495883	0.999542
492.863440	1.000056
493.230939	0.999574
493.598380	0.999144
493.965763	0.999156
494.333088	0.999902
494.700354	0.999346
495.067563	0.999236
495.434713	0.998808
495.801805	0.999817
496.168839	0.999620
496.535815	0.998926
496.902733	0.998580
497.269593	0.999461
497.636395	0.999140
498.003139	0.999375
498.369825	0.999794
498.736453	0.998991
499.103023	0.999008
499.469535	0.999142
499.835989	0.998639
500.202385	0.999110
500.568723	0.999305
500.935003	0.999232
501.301226	0.999150
501.667390	0.998948
502.033497	0.998650
502.399546	0.999815
502.765537	0.998332
503.131470	0.999036
503.497345	0.998004
503.863163	0.999871
504.228923	0.999762
504.594625	0.999698
504.960269	0.999921
505.325856	0.999277
505.691385	0.998389
506.056856	0.999132
506.422270	0.998986
506.787625	0.998876
507.152924	0.998940
507.518164	0.998600
507.883347	0.999340
508.248472	0.998591
508.613540	0.999098
508.978550	0.998925
509.343503	0.998202
509.708398	0.998792
510.073236	0.998388
510.438016	0.999543
510.802738	0.998867
511.167403	0.998735
511.532010	0.998849
511.896561	0.998460
512.261053	0.999504
512.625488	0.998500
512.989866	0.998313
513.354186	0.998315
513.718449	0.998673
514.082655	0.998727
514.446803	0.998539
514.810894	0.998802
515.174927	0.998127
515.538904	0.998540
515.902822	0.998668
516.266684	0.999042
516.630488	0.999024
516.994235	0.998648
517.357925	0.998022
517.721558	0.998599
518.085133	0.998362
518.448651	0.999440
518.812112	0.998206
519.175516	0.997512
519.538863	0.998251
519.902152	0.997395
520.265385	0.998129
520.628560	0.997742
520.991678	0.998596
521.354739	0.998214
521.717743	0.997844
522.080690	0.997826
522.443580	0.997868
522.806413	0.997824
523.169189	0.997179
523.531908	0.997327
523.894569	0.998048
524.257174	0.998180
524.619722	0.997744
524.982213	0.997310
525.344647	0.998207
525.707025	0.997220
526.069345	0.996534
526.431608	0.997114
526.793815	0.997996
527.155964	0.996892
527.518057	0.997772
527.880093	0.997380
528.242072	0.996062
528.603995	0.996129
528.965860	0.996983
529.327669	0.996370
529.689421	0.995489
530.051117	0.996888
530.412755	0.996064
530.774337	0.996403
531.135862	0.996157
531.497331	0.996551
531.858743	0.995708
532.220098	0.995793
532.581396	0.995213
532.942638	0.995867
533.303824	0.995153
533.664953	0.994571
534.026025	0.994727
534.387040	0.993998
534.747999	0.994202
535.108902	0.994122
535.469748	0.993237
535.830537	0.993525
536.191270	0.992532
536.551947	0.992522
536.912567	0.992135
537.273131	0.992750
537.633638	0.991235
537.994089	0.992015
538.354483	0.991345
538.714821	0.990903
539.075103	0.990907
539.435328	0.990215
539.795497	0.989893
540.155609	0.989082
540.515665	0.989027
540.875665	0.988244
541.235609	0.987629
541.595496	0.987417
541.955328	0.986364
542.315102	0.987044
542.674821	0.985929
543.034483	0.984896
543.394090	0.984213
543.753640	0.984993
544.113134	0.983560
544.472571	0.983586
544.831953	0.982284
545.191278	0.982099
545.550548	0.981454
545.909761	0.978911
546.268918	0.979631
546.628019	0.978689
546.987064	0.977682
547.346053	0.977600
547.704986	0.977078
548.063863	0.975762
548.422684	0.975237
548.781449	0.974655
549.140158	0.972354
549.498811	0.972581
549.857408	0.971845
550.215949	0.970350
550.574434	0.969421
550.932864	0.967903
551.291237	0.967911
551.649555	0.966256
552.007817	0.964614
552.366022	0.964088
552.724173	0.962892
553.082267	0.961610
553.440305	0.959219
553.798288	0.958812
554.156215	0.956736
554.514086	0.956031
554.871902	0.954181
555.229661	0.952398
555.587365	0.951250
555.945014	0.951133
556.302606	0.947524
556.660143	0.947337
557.017625	0.944742
557.375050	0.943193
557.732421	0.941457
558.089735	0.940199
558.446994	0.938510
558.804197	0.936826
559.161345	0.935497
559.518437	0.934490
559.875474	0.930138
560.232455	0.928774
560.589381	0.928567
560.946251	0.924153
561.303065	0.923524
561.659825	0.921399
562.016528	0.918597
562.373177	0.917811
562.729770	0.914268
563.086307	0.913605
563.442789	0.910545
563.799216	0.907902
564.155587	0.905888
564.511904	0.903225
564.868164	0.900387
565.224370	0.898887
565.580520	0.896339
565.936615	0.895184
566.292654	0.891093
566.648638	0.888757
567.004567	0.885960
567.360441	0.884184
567.716260	0.881436
568.072023	0.879056
568.427732	0.874492
568.783385	0.874185
569.138982	0.869787
569.494525	0.867020
569.850013	0.865390
570.205445	0.861024
570.560823	0.859568
570.916145	0.856157
571.271412	0.852964
571.626625	0.850196
571.981782	0.847788
572.336884	0.845743
572.691931	0.842625
573.046923	0.838554
573.401860	0.836440
573.756743	0.833166
574.111570	0.829935
574.466342	0.827978
574.821059	0.823451
575.175722	0.821388
575.530330	0.817361
575.884882	0.814344
576.239380	0.811657
576.593823	0.808632
576.948211	0.803998
577.302544	0.803243
577.656823	0.798242
578.011047	0.796825
578.365216	0.792476
578.719330	0.790016
579.073389	0.786162
579.427394	0.783796
579.781344	0.780910
580.135239	0.777407
580.489080	0.774470
580.842866	0.771367
581.196597	0.767406
581.550273	0.764015
581.903895	0.760543
582.257463	0.756796
582.610975	0.753165
582.964434	0.751081
583.317837	0.747907
583.671186	0.745090
584.024481	0.740570
584.377721	0.738476
584.730906	0.735327
585.084037	0.731061
585.437113	0.729065
585.790135	0.724515
586.143103	0.721973
586.496016	0.720399
586.848874	0.714924
587.201679	0.712559
587.554428	0.710139
587.907124	0.705633
588.259765	0.702916
588.612352	0.699006
588.964884	0.697536
589.317362	0.693495
589.669786	0.690014
590.022155	0.686953
590.374470	0.681829
590.726731	0.681131
591.078937	0.678389
591.431090	0.672697
591.783188	0.672262
592.135232	0.667955
592.487222	0.667055
592.839157	0.660829
593.191038	0.658787
593.542866	0.656699
593.894639	0.654490
594.246358	0.650729
594.598022	0.646840
594.949633	0.645380
595.301190	0.642214
595.652692	0.638534
596.004141	0.632371
596.355535	0.634382
596.706876	0.630308
597.058162	0.628272
597.409395	0.623371
597.760573	0.619152
598.111698	0.618418
598.462768	0.613996
598.813785	0.612555
599.164748	0.609670
599.515657	0.607539
599.866511	0.604284
600.217312	0.600397
600.568060	0.599788
600.918753	0.594624
601.269392	0.592206
601.619978	0.590441
601.970510	0.586218
602.320988	0.584382
602.671412	0.578394
603.021783	0.577804
603.372100	0.576186
603.722363	0.571297
604.072572	0.569663
604.422728	0.566315
604.772830	0.565048
605.122878	0.561401
605.472872	0.559406
605.822813	0.554413
606.172701	0.553963
606.522534	0.548931
606.872314	0.546315
607.222041	0.543334
607.571714	0.539356
607.921333	0.536423
608.270899	0.533930
608.620411	0.529531
608.969870	0.529161
609.319276	0.526706
609.668627	0.523449
610.017926	0.519659
610.367171	0.516008
610.716362	0.514063
611.065500	0.512270
611.414585	0.508399
611.763616	0.507324
612.112594	0.504412
612.461518	0.501282
612.810389	0.497868
613.159207	0.496540
613.507971	0.495692
613.856682	0.490184
614.205340	0.489466
614.553945	0.483835
614.902496	0.484532
615.250994	0.480738
615.599439	0.479492
615.947830	0.476134
616.296169	0.475285
616.644454	0.472303
616.992686	0.470537
617.340864	0.466798
617.688990	0.467676
618.037063	0.462960
618.385082	0.462922
618.733048	0.457849
619.080961	0.458176
619.428821	0.455438
619.776628	0.452342
620.124382	0.452254
620.472083	0.449740
620.819731	0.448022
621.167326	0.448544
621.514868	0.446393
621.862357	0.447301
622.209793	0.445361
622.557176	0.444167
622.904506	0.443223
623.251783	0.443259
623.599007	0.443027
623.946179	0.440701
624.293297	0.440142
624.640363	0.441898
624.987376	0.439894
625.334336	0.441240
625.681243	0.440534
626.028097	0.439363
626.374899	0.439647
626.721647	0.436875
627.068343	0.439006
627.414987	0.438306
627.761577	0.438319
628.108115	0.435621
628.454600	0.438664
628.801032	0.434478
629.147412	0.435794
629.493739	0.434279
629.840014	0.435793
630.186236	0.432234
630.532405	0.435795
630.878521	0.432862
631.224585	0.433360
631.570597	0.435156
631.916556	0.432240
632.262462	0.432196
632.608316	0.432700
632.954117	0.432236
633.299866	0.432047
633.645562	0.430464
633.991206	0.433729
634.336797	0.434438
634.682336	0.435216
635.027823	0.435954
635.373257	0.435036
635.718639	0.437040
636.063968	0.434492
636.409245	0.438775
636.754470	0.438350
637.099642	0.439393
637.444762	0.441244
637.789829	0.439312
638.134845	0.442177
638.479808	0.441354
638.824719	0.440514
639.169577	0.443301
639.514383	0.441047
639.859137	0.444467
640.203839	0.443698
640.548489	0.442611
640.893086	0.443849
641.237632	0.444423
641.582125	0.442189
641.926566	0.442769
642.270955	0.442482
642.615292	0.442392
642.959576	0.440158
643.303809	0.440505
643.647990	0.439016
643.992118	0.438941
644.336195	0.441897
644.680219	0.439267
645.024192	0.439600
645.368112	0.433092
645.711981	0.432252
646.055797	0.426482
646.399562	0.428800
646.743274	0.420639
647.086935	0.418124
647.430544	0.417472
647.774101	0.416446
648.117606	0.415659
648.461059	0.415232
648.804460	0.416965
649.147810	0.421308
649.491108	0.422301
649.834354	0.423357
650.177548	0.427898
650.520690	0.432329
650.863781	0.432960
651.206820	0.431748
651.549807	0.435401
651.892742	0.439487
652.235626	0.438285
652.578458	0.438506
652.921238	0.444307
653.263967	0.441851
653.606644	0.445546
653.949269	0.444960
654.291843	0.448205
654.634365	0.444909
654.976836	0.447296
655.319255	0.447426
655.661622	0.448925
656.003938	0.448407
656.346203	0.450872
656.688416	0.448232
657.030577	0.451395
657.372687	0.453061
657.714746	0.453631
658.056753	0.450908
658.398708	0.453665
658.740612	0.454600
659.082465	0.450358
659.424266	0.451154
659.766016	0.450180
660.107715	0.452412
660.449362	0.451098
660.790958	0.451568
661.132503	0.451971
661.473996	0.448974
661.815438	0.450026
662.156829	0.449460
662.498168	0.450049
662.839456	0.451683
663.180693	0.449129
663.521879	0.448926
663.863013	0.449368
664.204097	0.447884
664.545129	0.444430
664.886110	0.445091
665.227040	0.441774
665.567918	0.444727
665.908746	0.442613
666.249522	0.441787
666.590248	0.442479
666.930922	0.441168
667.271545	0.439830
667.612118	0.439321
667.952639	0.440853
668.293109	0.439611
668.633528	0.442444
668.973896	0.442282
669.314213	0.442203
669.654480	0.443855
669.994695	0.443412
670.334859	0.444528
670.674973	0.444806
671.015035	0.444957
671.355047	0.444039
671.695008	0.444999
672.034918	0.446939
672.374777	0.446489
672.714585	0.447510
673.054342	0.447264
673.394049	0.447366
673.733705	0.445109
674.073310	0.445964
674.412864	0.449059
674.752368	0.448937
675.091820	0.449457
675.431223	0.453773
675.770574	0.453009
676.109875	0.456789
676.449125	0.456299
676.788324	0.458523
677.127473	0.463459
677.466571	0.463410
677.805619	0.464426
678.144616	0.465642
678.483562	0.468206
678.822458	0.470553
679.161303	0.471747
679.500098	0.470687
679.838842	0.473051
680.177535	0.472137
680.516179	0.470511
680.854771	0.470279
681.193314	0.463281
681.531805	0.454752
681.870247	0.443630
682.208638	0.435746
682.546978	0.434766
682.885268	0.436509
683.223508	0.442739
683.561697	0.445917
683.899836	0.449076
684.237925	0.452228
684.575963	0.454524
684.913951	0.457796
685.251889	0.452920
685.589776	0.455264
685.927614	0.457925
686.265401	0.452482
686.603137	0.453311
686.940824	0.447532
687.278460	0.446023
687.616046	0.445019
687.953582	0.439926
688.291068	0.441597
688.628504	0.437105
688.965889	0.439313
689.303224	0.443507
689.640510	0.446777
689.977745	0.453043
690.314930	0.460375
690.652065	0.464908
690.989150	0.472361
691.326185	0.478816
691.663170	0.483790
692.000105	0.490844
692.336990	0.497577
692.673825	0.499901
693.010610	0.506602
693.347345	0.512225
693.684030	0.513617
694.020665	0.518123
694.357251	0.526736
694.693786	0.526855
695.030272	0.530554
695.366707	0.534018
695.703093	0.537623
696.039429	0.535020
696.375716	0.536655
696.711952	0.539315
697.048139	0.540858
697.384276	0.543543
697.720363	0.541731
698.056400	0.540659
698.392388	0.546416
698.728326	0.549523
699.064214	0.551894
699.400053	0.552420
699.735842	0.556445
700.071581	0.559547
700.407270	0.561774
700.742910	0.564049
701.078501	0.570700
701.414042	0.571302
701.749533	0.573853
702.084974	0.582563
702.420366	0.574621
702.755709	0.582644
703.091002	0.590146
703.426246	0.583902
703.761440	0.589649
704.096584	0.594489
704.431679	0.591009
704.766725	0.594075
705.101721	0.595050
705.436668	0.591274
705.771565	0.598577
706.106413	0.594733
706.441212	0.590544
706.775961	0.588856
707.110661	0.592031
707.445311	0.588805
707.779913	0.584897
708.114465	0.584334
708.448967	0.581100
708.783421	0.572757
709.117825	0.566933
709.452180	0.567811
709.786485	0.560987
710.120742	0.550700
710.454949	0.553138
710.789107	0.545308
711.123216	0.536521
711.457275	0.538251
711.791286	0.528598
712.125247	0.527825
712.459159	0.539040
712.793023	0.531367
713.126837	0.535615
713.460602	0.536231
713.794318	0.545060
714.127985	0.544026
714.461602	0.554532
714.795171	0.557237
715.128691	0.565135
715.462162	0.572118
715.795584	0.578089
716.128957	0.580790
716.462281	0.587298
716.795556	0.591013
717.128782	0.596408
717.461960	0.604966
717.795088	0.603585
718.128167	0.609784
718.461198	0.618565
718.794180	0.618675
719.127113	0.621843
719.459997	0.624695
719.792833	0.631401
720.125619	0.633422
720.458357	0.638787
720.791046	0.638029
721.123686	0.641360
721.456278	0.649281
721.788821	0.645302
722.121315	0.650248
722.453761	0.653356
722.786158	0.652226
723.118506	0.648263
723.450805	0.656874
723.783056	0.652539
724.115259	0.649770
724.447412	0.649141
724.779518	0.650775
725.111574	0.648524
725.443582	0.645012
725.775542	0.647370
726.107453	0.639885
726.439315	0.639794
726.771129	0.638270
727.102895	0.631379
727.434612	0.623463
727.766281	0.622690
728.097901	0.621325
728.429473	0.621770
728.760996	0.619985
729.092471	0.619881
729.423897	0.623530
729.755276	0.622228
730.086606	0.623020
730.417887	0.617544
730.749120	0.608536
731.080305	0.599158
731.411442	0.595207
731.742530	0.599942
732.073570	0.599214
732.404562	0.591859
732.735506	0.592656
733.066401	0.597645
733.397249	0.607167
733.728048	0.618296
734.058798	0.630759
734.389501	0.640830
734.720156	0.650545
735.050762	0.658717
735.381320	0.659779
735.711831	0.668900
736.042293	0.673824
736.372707	0.668956
736.703073	0.674515
737.033391	0.676337
737.363661	0.672371
737.693883	0.668391
738.024056	0.667430
738.354182	0.667289
738.684260	0.657237
739.014290	0.653352
739.344272	0.654304
739.674207	0.647643
740.004093	0.647443
740.333931	0.647407
740.663722	0.647617
740.993464	0.647761
741.323159	0.650973
741.652806	0.655915
741.982405	0.662159
742.311956	0.666196
742.641460	0.667528
742.970915	0.671834
743.300323	0.680277
743.629683	0.686658
743.958996	0.687934
744.288260	0.692390
744.617477	0.698355
744.946647	0.700043
745.275768	0.704194
745.604842	0.704712
745.933869	0.714661
746.262847	0.714682
746.591778	0.708744
746.920662	0.714775
747.249498	0.721250
747.578286	0.712582
747.907027	0.708092
748.235720	0.709916
748.564365	0.704652
748.892963	0.703994
749.221514	0.707818
749.550017	0.711789
749.878473	0.712161
750.206881	0.717720
750.535242	0.719785
750.863555	0.719821
751.191821	0.719937
751.520039	0.723755
751.848210	0.727788
752.176334	0.720717
752.504411	0.720049
752.832440	0.727318
753.160421	0.732300
753.488356	0.730339
753.816243	0.726742
754.144082	0.735738
754.471875	0.740558
754.799620	0.734916
755.127318	0.736686
755.454969	0.735789
755.782572	0.735728
756.110129	0.740788
756.437638	0.742544
756.765100	0.739548
757.092515	0.738074
757.419882	0.736417
757.747203	0.741974
758.074477	0.741607
758.401703	0.738833
758.728882	0.733634
759.056014	0.733075
759.383099	0.731402
759.710138	0.732705
760.037129	0.729552
760.364073	0.723209
760.690970	0.724992
761.017820	0.731553
761.344623	0.726583
761.671379	0.717394
761.998088	0.705993
762.324751	0.684129
762.651366	0.642443
762.977935	0.576995
763.304456	0.524999
763.630931	0.515995
763.957359	0.554199
764.283740	0.599288
764.610074	0.624824
764.936362	0.655808
765.262602	0.682129
765.588796	0.703719
765.914943	0.721855
766.241044	0.738858
766.567097	0.744961
766.893104	0.755139
767.219064	0.761629
767.544978	0.767976
767.870845	0.781218
768.196665	0.784944
768.522438	0.782634
768.848165	0.783936
769.173846	0.793703
769.499479	0.797423
769.825066	0.800650
770.150607	0.806287
770.476101	0.800764
770.801548	0.802819
771.126949	0.814019
771.452303	0.816598
771.777611	0.816849
772.102872	0.815792
772.428087	0.821115
772.753256	0.824441
773.078378	0.825697
773.403453	0.835266
773.728482	0.839370
774.053465	0.832958
774.378401	0.835680
774.703291	0.845681
775.028135	0.844811
775.352932	0.846136
775.677683	0.848477
776.002388	0.849599
776.327046	0.848215
776.651658	0.851563
776.976224	0.854487
777.300743	0.856169
777.625216	0.857518
777.949643	0.859501
778.274024	0.859572
778.598359	0.861301
778.922647	0.860184
779.246889	0.860340
779.571086	0.864668
779.895236	0.866424
780.219339	0.863609
780.543397	0.860751
780.867409	0.858853
781.191374	0.861373
781.515294	0.862945
781.839167	0.862138
782.162995	0.864517
782.486776	0.861767
782.810511	0.863249
783.134201	0.866411
783.457844	0.863875
783.781441	0.867647
784.104993	0.872966
784.428498	0.873306
784.751958	0.868313
785.075372	0.870645
785.398739	0.875065
785.722061	0.871394
786.045337	0.866886
786.368568	0.871572
786.691752	0.875255
787.014891	0.859993
787.337983	0.850867
787.661030	0.844120
787.984031	0.826497
788.306987	0.814614
788.629897	0.816522
788.952760	0.820882
789.275579	0.824438
789.598351	0.840196
789.921078	0.852589
790.243759	0.854708
790.566395	0.858643
790.888984	0.866583
791.211529	0.871366
791.534027	0.875604
791.856480	0.876598
792.178888	0.882029
792.501249	0.884288
792.823566	0.885500
793.145836	0.884821
793.468062	0.888002
793.790241	0.887361
794.112375	0.884685
794.434464	0.881695
794.756507	0.880630
795.078505	0.880442
795.400457	0.875445
795.722364	0.862820
796.044226	0.856154
796.366042	0.855977
796.687812	0.858949
797.009538	0.855308
797.331218	0.858616
797.652852	0.862795
797.974442	0.866679
798.295986	0.867205
798.617484	0.869383
798.938938	0.873910
799.260346	0.878405
799.581709	0.879753
799.903026	0.882296
800.224299	0.883310
800.545526	0.887165
800.866708	0.891017
801.187845	0.894767
801.508936	0.894500
801.829983	0.892394
802.150984	0.896084
802.471940	0.901819
802.792851	0.900845
803.113717	0.900433
803.434538	0.898579
803.755314	0.901358
804.076045	0.902371
804.396731	0.903344
804.717372	0.902115
805.037967	0.904852
805.358518	0.901888
805.679024	0.898795
805.999485	0.900084
806.319901	0.899825
806.640272	0.901315
806.960598	0.898677
807.280879	0.895752
807.601115	0.894670
807.921306	0.899241
808.241453	0.899553
808.561554	0.896521
808.881611	0.897351
809.201623	0.898060
809.521590	0.899343
809.841513	0.900340
810.161390	0.898247
810.481223	0.901102
810.801011	0.903106
811.120755	0.905348
811.440453	0.904944
811.760107	0.902588
812.079716	0.903353
812.399281	0.906957
812.718801	0.909628
813.038276	0.910292
813.357707	0.908895
813.677093	0.906569
813.996434	0.909801
814.315731	0.910881
814.634983	0.912091
814.954191	0.911043
815.273354	0.906969
815.592473	0.905019
815.911547	0.903925
816.230577	0.902517
816.549562	0.898814
816.868502	0.899848
817.187399	0.896653
817.506250	0.891070
817.825058	0.891928
818.143821	0.890362
818.462539	0.883892
818.781213	0.876547
819.099843	0.865441
819.418429	0.850203
819.736970	0.833249
820.055466	0.814570
820.373919	0.789382
820.692327	0.757120
821.010691	0.723736
821.329011	0.648539
821.647286	0.534644
821.965517	0.422821
822.283704	0.380585
822.601847	0.382684
822.919945	0.418418
823.237999	0.451068
823.556010	0.495800
823.873976	0.551288
824.191897	0.600660
824.509775	0.642743
824.827609	0.687451
825.145398	0.709230
825.463144	0.712468
825.780845	0.695215
826.098502	0.676796
826.416116	0.631985
826.733685	0.589217
827.051210	0.580750
827.368692	0.594508
827.686129	0.631586
828.003522	0.682699
828.320872	0.730203
828.638177	0.773459
828.955439	0.804455
829.272656	0.826157
829.589830	0.842721
829.906960	0.858476
830.224046	0.870145
830.541088	0.880742
830.858086	0.885249
831.175041	0.891152
831.491952	0.890941
831.808819	0.887390
832.125642	0.881266
832.442421	0.866064
832.759157	0.844284
833.075849	0.799567
833.392497	0.736804
833.709101	0.696521
834.025662	0.707398
834.342179	0.738140
834.658653	0.775706
834.975083	0.811202
835.291469	0.837050
835.607811	0.857887
835.924110	0.874321
836.240366	0.890092
836.556578	0.904898
836.872746	0.912658
837.188871	0.918039
837.504952	0.922805
837.820990	0.926196
838.136984	0.929955
838.452935	0.932362
838.768842	0.934965
839.084706	0.926819
839.400526	0.901957
839.716303	0.862273
840.032037	0.841262
840.347727	0.843619
840.663373	0.863643
840.978977	0.884575
841.294537	0.904929
841.610054	0.920535
841.925527	0.929137
842.240957	0.935951
842.556344	0.942270
842.871687	0.947722
843.186987	0.953074
843.502244	0.952359
843.817458	0.953161
844.132629	0.957995
844.447756	0.961416
844.762840	0.962790
845.077881	0.962580
845.392879	0.961546
845.707833	0.964150
846.022745	0.965814
846.337613	0.966672
846.652438	0.967045
846.967221	0.967099
847.281960	0.966876
847.596656	0.969348
847.911309	0.966993
848.225919	0.969902
848.540485	0.970016
848.855009	0.970930
849.169490	0.969872
849.483928	0.969929
849.798323	0.970490
850.112675	0.971123
850.426984	0.972035
850.741251	0.972824
851.055474	0.971548
851.369654	0.970247
851.683792	0.971113
851.997887	0.971750
852.311938	0.972341
852.625947	0.970697
852.939914	0.969548
853.253837	0.971163
853.567718	0.972639
853.881555	0.972317
854.195350	0.969219
854.509103	0.971391
854.822812	0.971585
855.136479	0.971584
855.450103	0.972323
855.763685	0.970501
856.077224	0.970774
856.390720	0.972210
856.704173	0.972636
857.017584	0.971046
857.330953	0.968943
857.644278	0.968876
857.957561	0.970108
858.270802	0.970600
858.584000	0.969534
858.897155	0.969404
859.210268	0.968945
859.523339	0.969586
859.836367	0.972601
860.149352	0.972589
860.462295	0.969956
860.775195	0.971360
861.088054	0.970701
861.400869	0.970749
861.713642	0.972651
862.026373	0.971694
862.339062	0.971830
862.651708	0.969642
862.964312	0.970434
863.276873	0.970846
863.589392	0.970345
863.901869	0.968334
864.214303	0.967133
864.526696	0.965855
864.839045	0.964626
865.151353	0.964190
865.463619	0.965070
865.775842	0.965449
866.088023	0.964585
866.400162	0.964318
866.712258	0.965096
867.024313	0.965180
867.336325	0.966097
867.648296	0.965049
867.960224	0.964438
868.272110	0.963515
868.583954	0.965946
868.895755	0.965951
869.207515	0.964907
869.519233	0.961378
869.830909	0.963368
870.142542	0.965245
870.454134	0.964032
870.765684	0.963445
871.077191	0.960143
871.388657	0.960568
871.700081	0.960601
872.011463	0.961361
872.322803	0.960106
872.634101	0.959401
872.945357	0.957267
873.256571	0.955966
873.567744	0.955468
873.878874	0.955907
874.189963	0.954635
874.501010	0.953365
874.812015	0.952181
875.122979	0.953556
875.433900	0.955860
875.744780	0.956529
876.055618	0.953866
876.366415	0.952172
876.677169	0.952271
876.987882	0.953812
877.298554	0.953741
877.609183	0.950392
877.919771	0.947530
878.230317	0.945844
878.540822	0.944766
878.851285	0.938372
879.161707	0.931599
879.472087	0.919923
879.782425	0.904981
880.092722	0.870963
880.402977	0.821378
880.713191	0.763184
881.023363	0.706354
881.333494	0.674053
881.643583	0.646722
881.953631	0.645879
882.263637	0.674508
882.573602	0.713541
882.883526	0.737930
883.193408	0.759497
883.503248	0.781662
883.813048	0.808042
884.122806	0.835827
884.432522	0.859564
884.742197	0.877699
885.051831	0.887361
885.361424	0.896804
885.670975	0.908444
885.980485	0.918940
886.289954	0.924348
886.599382	0.928525
886.908768	0.932635
887.218113	0.938522
887.527417	0.942802
887.836680	0.945898
888.145901	0.945907
888.455082	0.949385
888.764221	0.953782
889.073319	0.956051
889.382376	0.956363
889.691392	0.955176
890.000366	0.955997
890.309300	0.955955
890.618193	0.955824
890.927044	0.953641
891.235855	0.954696
891.544625	0.953981
891.853353	0.955512
892.162041	0.953252
892.470687	0.946473
892.779293	0.941287
893.087858	0.938040
893.396381	0.930940
893.704864	0.917733
894.013306	0.895912
894.321707	0.870412
894.630068	0.856235
894.938387	0.851804
895.246665	0.853217
895.554903	0.864941
895.863100	0.878093
896.171256	0.893851
896.479371	0.912796
896.787446	0.924923
897.095480	0.929833
897.403473	0.932733
897.711425	0.937224
898.019336	0.944277
898.327207	0.945607
898.635038	0.949570
898.942827	0.949215
899.250576	0.951595
899.558284	0.956132
899.865952	0.957233
900.173579	0.958719
900.481165	0.958016
900.788711	0.962909
901.096216	0.964236
901.403681	0.964904
901.711105	0.965870
902.018489	0.966275
902.325832	0.965332
902.633135	0.964392
902.940397	0.958967
903.247619	0.948102
903.554800	0.923066
903.861941	0.886135
904.169041	0.852996
904.476101	0.835851
904.783121	0.837787
905.090100	0.852777
905.397039	0.873752
905.703938	0.893985
906.010796	0.912132
906.317614	0.928423
906.624391	0.939018
906.931129	0.947878
907.237826	0.955787
907.544483	0.963178
907.851099	0.965300
908.157675	0.971048
908.464211	0.971873
908.770707	0.975486
909.077163	0.976000
909.383578	0.977468
909.689954	0.976122
909.996289	0.977779
910.302584	0.980234
910.608839	0.981343
910.915054	0.981441
911.221229	0.980066
911.527363	0.979755
911.833458	0.979063
912.139513	0.979748
912.445527	0.977634
912.751502	0.976721
913.057436	0.973844
913.363331	0.972779
913.669186	0.968946
913.975000	0.964289
914.280775	0.959148
914.586510	0.953081
914.892205	0.940110
915.197859	0.920291
915.503475	0.894714
915.809050	0.876828
916.114585	0.872382
916.420081	0.870487
916.725536	0.866247
917.030952	0.873947
917.336328	0.885546
917.641665	0.900265
917.946961	0.914102
918.252218	0.926278
918.557435	0.933638
918.862612	0.940666
919.167750	0.946552
919.472848	0.951773
919.777906	0.956746
920.082925	0.961322
920.387904	0.965147
920.692843	0.966254
920.997743	0.966618
921.302603	0.971059
921.607423	0.972857
921.912204	0.974154
922.216946	0.974072
922.521647	0.976390
922.826310	0.977297
923.130932	0.979184
923.435516	0.980660
923.740059	0.981624
924.044564	0.980917
924.349028	0.983309
924.653454	0.985319
924.957840	0.986011
925.262186	0.986239
925.566493	0.986227
925.870761	0.985283
926.174989	0.987522
926.479178	0.989733
926.783328	0.989489
927.087438	0.989814
927.391509	0.989795
927.695541	0.990479
927.999533	0.992024
928.303486	0.990605
928.607400	0.992962
928.911275	0.990347
929.215110	0.992220
929.518906	0.992514
929.822663	0.991872
930.126381	0.992273
930.430060	0.990968
930.733699	0.992190
931.037299	0.991042
931.340861	0.992039
931.644383	0.991383
931.947866	0.990707
932.251309	0.990978
932.554714	0.992200
932.858080	0.991357
933.161407	0.992248
933.464694	0.992121
933.767943	0.991353
934.071153	0.992599
934.374323	0.992903
934.677455	0.992390
934.980548	0.993771
935.283602	0.991376
935.586617	0.992995
935.889593	0.991277
936.192530	0.992087
936.495428	0.991414
936.798287	0.992502
937.101108	0.991684
937.403890	0.991033
937.706632	0.990464
938.009336	0.989452
938.312002	0.987429
938.614628	0.986165
938.917216	0.985360
939.219765	0.984218
939.522275	0.984967
939.824747	0.984981
940.127179	0.984592
940.429573	0.986546
940.731929	0.985861
941.034246	0.987271
941.336524	0.987060
941.638763	0.988520
941.940964	0.987309
942.243126	0.988470
942.545250	0.988335
942.847335	0.989308
943.149381	0.989985
943.451389	0.989645
943.753359	0.989912
944.055290	0.992236
944.357182	0.991701
944.659036	0.989451
944.960851	0.990917
945.262628	0.991055
945.564367	0.992055
945.866067	0.991953
946.167729	0.992849
946.469352	0.991643
946.770937	0.989660
947.072484	0.991927
947.373992	0.991566
947.675462	0.991724
947.976893	0.992354
948.278286	0.991453
948.579641	0.993177
948.880958	0.992970
949.182236	0.992989
949.483476	0.993250
949.784678	0.991834
950.085841	0.992755
950.386967	0.992375
950.688054	0.991906
950.989103	0.992184
951.290114	0.990015
951.591087	0.991232
951.892021	0.992024
952.192917	0.989941
952.493776	0.989903
952.794596	0.990061
953.095378	0.990079
953.396122	0.990491
953.696828	0.989054
953.997496	0.991681
954.298126	0.992604
954.598718	0.992114
954.899272	0.993045
955.199788	0.991830
955.500266	0.992484
955.800706	0.993844
956.101108	0.993574
956.401472	0.995086
956.701798	0.995332
957.002087	0.993302
957.302337	0.995394
957.602550	0.995554
957.902724	0.995995
958.202861	0.995191
958.502960	0.996399
958.803022	0.996015
959.103045	0.995069
959.403031	0.996533
959.702979	0.996425
960.002889	0.996950
960.302762	0.994982
960.602596	0.996527
960.902393	0.995123
961.202153	0.997708
961.501875	0.997268
961.801559	0.996308
962.101205	0.996936
962.400814	0.997213
962.700385	0.997083
962.999918	0.995721
963.299414	0.996953
963.598873	0.996730
963.898293	0.996900
964.197677	0.997412
964.497022	0.997008
964.796331	0.997837
965.095601	0.997114
965.394835	0.997680
965.694030	0.997045
965.993189	0.999097
966.292309	0.997193
966.591393	0.998133
966.890439	0.998116
967.189447	0.997599
967.488419	0.998476
967.787353	0.997149
968.086249	0.996572
968.385108	0.997513
968.683930	0.997053
968.982714	0.998696
969.281462	0.998581
969.580172	0.996195
969.878844	0.998368
970.177480	0.997878
970.476078	0.998420
970.774639	0.997984
971.073162	0.998366
971.371649	0.997463
971.670098	0.996755
971.968510	0.997115
972.266885	0.996151
972.565223	0.997165
972.863524	0.997783
973.161788	0.997529
973.460014	0.997805
973.758204	0.995814
974.056356	0.997343
974.354471	0.994495
974.652550	0.996428
974.950591	0.996508
975.248595	0.996916
975.546563	0.996596
975.844493	0.998486
976.142386	0.998306
976.440243	0.997783
976.738062	0.997545
977.035845	0.997925
977.333590	0.997251
977.631299	0.998054
977.928971	0.997838
978.226606	0.997086
978.524204	0.995925
978.821765	0.997875
979.119290	0.998034
979.416777	0.997053
979.714228	0.997641
980.011642	0.995556
980.309020	0.997817
980.606360	0.997454
980.903664	0.997408
981.200931	0.996644
981.498162	0.995670
981.795356	0.995835
982.092513	0.994856
982.389633	0.995911
982.686717	0.992102
982.983764	0.991826
983.280775	0.992323
983.577749	0.991229
983.874686	0.993433
984.171587	0.992057
984.468451	0.995192
984.765279	0.995789
985.062070	0.995141
985.358824	0.995401
985.655543	0.996018
985.952224	0.996881
986.248869	0.996883
986.545478	0.996395
986.842050	0.998413
987.138586	0.996602
987.435086	0.996609
987.731549	0.998594
988.027975	0.998939
988.324366	0.997381
988.620719	0.998373
988.917037	0.996849
989.213318	0.998148
989.509563	0.998247
989.805772	0.999476
990.101944	0.999073
990.398080	0.998457
990.694180	0.997889
990.990244	0.996833
991.286271	0.998874
991.582262	0.998277
991.878217	0.997938
992.174136	0.998608
992.470019	0.999331
992.765865	0.997319
993.061676	0.998727
993.357450	0.998452
993.653188	0.996948
993.948890	0.997725
994.244556	0.998394
994.540186	0.998212
994.835780	0.997433
995.131337	0.997785
995.426859	0.997836
995.722345	0.997667
996.017795	0.997402
996.313208	0.996934
996.608586	0.996384
996.903928	0.997704
997.199234	0.997050
997.494504	0.997070
997.789738	0.996505
998.084936	0.996324
998.380099	0.998437
998.675225	0.996905
998.970316	0.998832
999.265371	0.998956
999.560390	0.998344
999.855373	0.998922
1000.150320	0.998802
1000.445232	0.998699
1000.740108	0.998743
1001.034948	0.998861
1001.329752	1.000080
1001.624521	0.997634
1001.919254	0.998442
1002.213951	0.999407
1002.508613	0.998072
1002.803239	0.999048
1003.097829	0.998695
1003.392384	0.999868
1003.686903	0.999002
1003.981386	0.999087
1004.275834	0.999355
1004.570246	0.997956
1004.864623	0.999353
1005.158964	0.999084
1005.453270	0.998078
1005.747540	0.997291
1006.041775	0.999776
1006.335974	1.000356
1006.630138	1.000053
1006.924266	0.999554
1007.218359	0.999168
1007.512416	0.999343
1007.806438	1.000439
1008.100425	0.998936
1008.394376	0.998858
1008.688292	0.999214
1008.982172	1.001310
1009.276017	0.999131
1009.569827	0.999059
1009.863602	0.998941
1010.157341	0.999282
1010.451045	0.998120
1010.744714	0.999515
1011.038347	0.998810
1011.331945	0.998315
1011.625508	0.997771
1011.919036	0.998639
1012.212528	0.998135
1012.505986	0.997774
1012.799408	0.998166
1013.092795	0.998647
1013.386147	0.999268
1013.679464	0.998222
1013.972745	0.997647
1014.265992	0.997317
1014.559204	0.999628
1014.852380	0.998180
1015.145521	0.997962
1015.438628	0.999309
1015.731699	0.999187
1016.024736	0.998677
1016.317737	1.000290
1016.610703	0.999131
1016.903635	0.999636
1017.196531	0.997836
1017.489393	0.999341
1017.782219	0.997697
1018.075011	0.997850
1018.367768	0.998555
1018.660490	1.000488
1018.953177	1.000488
1019.245829	1.000488
