Dividing Wavelength (nm)	Counts (n)	Blue Motor Position (mm): 0.000000	Red Motor Position (mm): 12.800000	
326.493990	1.000362
326.888308	1.000362
327.282561	1.000362
327.676750	1.000343
328.070874	0.999176
328.464933	1.001511
328.858929	0.999392
329.252859	0.998941
329.646726	0.999165
330.040528	1.000591
330.434265	0.998965
330.827938	1.000230
331.221547	1.000324
331.615091	1.001081
332.008571	1.000182
332.401986	1.000752
332.795338	0.999553
333.188625	0.998668
333.581847	0.999521
333.975006	0.998372
334.368100	1.000061
334.761129	0.998915
335.154095	1.000734
335.546996	0.997791
335.939833	0.992343
336.332606	0.993185
336.725315	0.995039
337.117960	0.994907
337.510540	0.993803
337.903056	0.994022
338.295508	0.992330
338.687896	0.994566
339.080220	0.993806
339.472480	0.993438
339.864676	0.993056
340.256807	0.993553
340.648875	0.993199
341.040879	0.995010
341.432818	0.993701
341.824694	0.993655
342.216506	0.995036
342.608253	0.993872
342.999937	0.993398
343.391557	0.994135
343.783113	0.993055
344.174605	0.994211
344.566033	0.994555
344.957397	0.992022
345.348697	0.993697
345.739934	0.993959
346.131106	0.993584
346.522215	0.993459
346.913260	0.994046
347.304241	0.994459
347.695159	0.993901
348.086012	0.993251
348.476802	0.994103
348.867528	0.993559
349.258191	0.992549
349.648789	0.994371
350.039324	0.993367
350.429796	0.993967
350.820203	0.994354
351.210548	0.993702
351.600828	0.992896
351.991045	0.993669
352.381198	0.992407
352.771288	0.994255
353.161314	0.994072
353.551276	0.994954
353.941175	0.993119
354.331010	0.992452
354.720782	0.994422
355.110490	0.992597
355.500135	0.994993
355.889717	0.993249
356.279235	0.993800
356.668689	0.992762
357.058080	0.993897
357.447408	0.994790
357.836672	0.994617
358.225873	0.993198
358.615010	0.994295
359.004084	0.994376
359.393095	0.993864
359.782043	0.993064
360.170927	0.994588
360.559748	0.994102
360.948505	0.992695
361.337199	0.993414
361.725830	0.993665
362.114398	0.991934
362.502903	0.993120
362.891344	0.994480
363.279722	0.993276
363.668037	0.993523
364.056289	0.992971
364.444478	0.994041
364.832603	0.994614
365.220665	0.992821
365.608665	0.992940
365.996601	0.993070
366.384474	0.992931
366.772284	0.992717
367.160031	0.991932
367.547715	0.992011
367.935336	0.994687
368.322893	0.993105
368.710388	0.992250
369.097820	0.992943
369.485189	0.992859
369.872495	0.991594
370.259738	0.991523
370.646918	0.992872
371.034035	0.993140
371.421090	0.992550
371.808081	0.992675
372.195010	0.992639
372.581875	0.994470
372.968678	0.993653
373.355418	0.992364
373.742096	0.992286
374.128710	0.993566
374.515262	0.992091
374.901751	0.993257
375.288177	0.994409
375.674540	0.993469
376.060841	0.992225
376.447079	0.992548
376.833254	0.992684
377.219367	0.991294
377.605417	0.992903
377.991404	0.992309
378.377329	0.991139
378.763191	0.992493
379.148991	0.992381
379.534727	0.992552
379.920402	0.993047
380.306013	0.993205
380.691563	0.993307
381.077049	0.992794
381.462474	0.993298
381.847835	0.992437
382.233134	0.992310
382.618371	0.992770
383.003545	0.991739
383.388657	0.992872
383.773706	0.992691
384.158693	0.992480
384.543618	0.993002
384.928480	0.993486
385.313280	0.992640
385.698017	0.992354
386.082692	0.991784
386.467305	0.990943
386.851856	0.990086
387.236344	0.988960
387.620770	0.987702
388.005133	0.988390
388.389435	0.987092
388.773674	0.983491
389.157851	0.981395
389.541965	0.978323
389.926018	0.976200
390.310008	0.973351
390.693936	0.968680
391.077802	0.964944
391.461606	0.960916
391.845348	0.955798
392.229027	0.952635
392.612645	0.947743
392.996200	0.939501
393.379694	0.932746
393.763125	0.925886
394.146494	0.920400
394.529801	0.912240
394.913047	0.903849
395.296230	0.898068
395.679351	0.889315
396.062410	0.879733
396.445408	0.874150
396.828343	0.864767
397.211217	0.855365
397.594028	0.852201
397.976778	0.839535
398.359466	0.830410
398.742092	0.819116
399.124656	0.816555
399.507158	0.802923
399.889598	0.793484
400.271977	0.780157
400.654294	0.774198
401.036549	0.764889
401.418742	0.759115
401.800874	0.741247
402.182944	0.731895
402.564952	0.717405
402.946898	0.711508
403.328783	0.703671
403.710606	0.703508
404.092367	0.677803
404.474067	0.674103
404.855705	0.666823
405.237282	0.667475
405.618797	0.649086
406.000250	0.639921
406.381642	0.625826
406.762972	0.623388
407.144240	0.617940
407.525447	0.612215
407.906593	0.600428
408.287677	0.591174
408.668700	0.593895
409.049661	0.583417
409.430560	0.576054
409.811399	0.579667
410.192176	0.559667
410.572891	0.561975
410.953545	0.548264
411.334138	0.557796
411.714669	0.548859
412.095139	0.556955
412.475547	0.540022
412.855894	0.540372
413.236180	0.537137
413.616405	0.540523
413.996568	0.529849
414.376670	0.534794
414.756711	0.537971
415.136691	0.534640
415.516609	0.524615
415.896466	0.519450
416.276262	0.515460
416.655997	0.516655
417.035670	0.497247
417.415283	0.488558
417.794834	0.493763
418.174324	0.498342
418.553753	0.507372
418.933121	0.488830
419.312428	0.482901
419.691674	0.488148
420.070859	0.476528
420.449983	0.484243
420.829045	0.473659
421.208047	0.482385
421.586988	0.476036
421.965867	0.474854
422.344686	0.463325
422.723444	0.475802
423.102141	0.492398
423.480777	0.465532
423.859352	0.486097
424.237866	0.462776
424.616319	0.464201
424.994712	0.454468
425.373044	0.465050
425.751314	0.453137
426.129524	0.469185
426.507673	0.453384
426.885762	0.447130
427.263789	0.452676
427.641756	0.461386
428.019662	0.451723
428.397508	0.450784
428.775292	0.455282
429.153016	0.446859
429.530679	0.453766
429.908282	0.446913
430.285824	0.456633
430.663305	0.435226
431.040726	0.456110
431.418086	0.456659
431.795385	0.448292
432.172624	0.446456
432.549802	0.447673
432.926920	0.446889
433.303977	0.445137
433.680974	0.443143
434.057910	0.441271
434.434786	0.440731
434.811601	0.443382
435.188355	0.425705
435.565050	0.435069
435.941683	0.436354
436.318257	0.420569
436.694770	0.421248
437.071222	0.419573
437.447614	0.423669
437.823946	0.430191
438.200218	0.420025
438.576429	0.429971
438.952580	0.422728
439.328670	0.420014
439.704700	0.426323
440.080670	0.426610
440.456580	0.408383
440.832429	0.415805
441.208218	0.427157
441.583947	0.416059
441.959616	0.416297
442.335224	0.420934
442.710773	0.411976
443.086261	0.409660
443.461689	0.423527
443.837057	0.413634
444.212365	0.403646
444.587612	0.410510
444.962800	0.400513
445.337927	0.401581
445.712995	0.428417
446.088002	0.390413
446.462949	0.400815
446.837837	0.405161
447.212664	0.394263
447.587431	0.385809
447.962139	0.356553
448.336786	0.316242
448.711374	0.326414
449.085901	0.369895
449.460369	0.374472
449.834776	0.378245
450.209124	0.357023
450.583412	0.350050
450.957640	0.342957
451.331808	0.354564
451.705917	0.377590
452.079965	0.382092
452.453954	0.370670
452.827883	0.377273
453.201752	0.372052
453.575562	0.383657
453.949311	0.371926
454.323001	0.377778
454.696632	0.374093
455.070202	0.366697
455.443713	0.358529
455.817164	0.353427
456.190556	0.349047
456.563888	0.345731
456.937160	0.343383
457.310373	0.360740
457.683526	0.359092
458.056619	0.365214
458.429653	0.365769
458.802628	0.369129
459.175542	0.363359
459.548398	0.346123
459.921194	0.338817
460.293930	0.338759
460.666607	0.316449
461.039224	0.304663
461.411782	0.300543
461.784280	0.299602
462.156719	0.303714
462.529099	0.308509
462.901419	0.324148
463.273680	0.328475
463.645882	0.327878
464.018024	0.333897
464.390106	0.326966
464.762130	0.311934
465.134094	0.294323
465.505999	0.263890
465.877845	0.234222
466.249631	0.221346
466.621358	0.228655
466.993026	0.242760
467.364634	0.248600
467.736184	0.257521
468.107674	0.266341
468.479105	0.265407
468.850477	0.272398
469.221790	0.279196
469.593043	0.289266
469.964238	0.293947
470.335373	0.293266
470.706449	0.291674
471.077467	0.292117
471.448425	0.254253
471.819324	0.229874
472.190164	0.229265
472.560945	0.258177
472.931667	0.280303
473.302330	0.284328
473.672934	0.296225
474.043479	0.284399
474.413965	0.286103
474.784393	0.289926
475.154761	0.284783
475.525070	0.281680
475.895321	0.287691
476.265513	0.281876
476.635645	0.276969
477.005719	0.277039
477.375734	0.273779
477.745691	0.267332
478.115588	0.263439
478.485427	0.256830
478.855207	0.243988
479.224928	0.226276
479.594591	0.214696
479.964194	0.218069
480.333739	0.219383
480.703226	0.220520
481.072653	0.218930
481.442022	0.214494
481.811333	0.211063
482.180584	0.214828
482.549777	0.219996
482.918912	0.223270
483.287988	0.223139
483.657005	0.222669
484.025964	0.228847
484.394864	0.226300
484.763706	0.227116
485.132489	0.231793
485.501213	0.232741
485.869879	0.231136
486.238487	0.234481
486.607036	0.232294
486.975527	0.236663
487.343959	0.232850
487.712333	0.231744
488.080648	0.233333
488.448905	0.232519
488.817104	0.233610
489.185244	0.228162
489.553326	0.224972
489.921350	0.215048
490.289315	0.197641
490.657222	0.192538
491.025070	0.193764
491.392861	0.195836
491.760593	0.201318
492.128267	0.207115
492.495883	0.212704
492.863440	0.218820
493.230939	0.225278
493.598380	0.226486
493.965763	0.228680
494.333088	0.231045
494.700354	0.232306
495.067563	0.231161
495.434713	0.234631
495.801805	0.232529
496.168839	0.234266
496.535815	0.235292
496.902733	0.235271
497.269593	0.236896
497.636395	0.234712
498.003139	0.235112
498.369825	0.237947
498.736453	0.234362
499.103023	0.235906
499.469535	0.235283
499.835989	0.235508
500.202385	0.236673
500.568723	0.239738
500.935003	0.235012
501.301226	0.239038
501.667390	0.233760
502.033497	0.231586
502.399546	0.234935
502.765537	0.236567
503.131470	0.234717
503.497345	0.231071
503.863163	0.239977
504.228923	0.232847
504.594625	0.231692
504.960269	0.236827
505.325856	0.232227
505.691385	0.236645
506.056856	0.233247
506.422270	0.232629
506.787625	0.234944
507.152924	0.232544
507.518164	0.233104
507.883347	0.234867
508.248472	0.236419
508.613540	0.231512
508.978550	0.233807
509.343503	0.234218
509.708398	0.231777
510.073236	0.229716
510.438016	0.229612
510.802738	0.230832
511.167403	0.229868
511.532010	0.231503
511.896561	0.226808
512.261053	0.225659
512.625488	0.227883
512.989866	0.228206
513.354186	0.228628
513.718449	0.230545
514.082655	0.226767
514.446803	0.228900
514.810894	0.226525
515.174927	0.229048
515.538904	0.228473
515.902822	0.225480
516.266684	0.227946
516.630488	0.229159
516.994235	0.227792
517.357925	0.226500
517.721558	0.224936
518.085133	0.224404
518.448651	0.224465
518.812112	0.226823
519.175516	0.226163
519.538863	0.224016
519.902152	0.225763
520.265385	0.222741
520.628560	0.224290
520.991678	0.224708
521.354739	0.223448
521.717743	0.224827
522.080690	0.225470
522.443580	0.222722
522.806413	0.223509
523.169189	0.222644
523.531908	0.221891
523.894569	0.225190
524.257174	0.225410
524.619722	0.223056
524.982213	0.223986
525.344647	0.222999
525.707025	0.223793
526.069345	0.222072
526.431608	0.223657
526.793815	0.221809
527.155964	0.225866
527.518057	0.224505
527.880093	0.225857
528.242072	0.224219
528.603995	0.226201
528.965860	0.227887
529.327669	0.226541
529.689421	0.227495
530.051117	0.228510
530.412755	0.226121
530.774337	0.228270
531.135862	0.228691
531.497331	0.227960
531.858743	0.230696
532.220098	0.227619
532.581396	0.230130
532.942638	0.230775
533.303824	0.231617
533.664953	0.231476
534.026025	0.233254
534.387040	0.231129
534.747999	0.231091
535.108902	0.230034
535.469748	0.234871
535.830537	0.232694
536.191270	0.233519
536.551947	0.232639
536.912567	0.232748
537.273131	0.234251
537.633638	0.234577
537.994089	0.234814
538.354483	0.236059
538.714821	0.233055
539.075103	0.232931
539.435328	0.233590
539.795497	0.237333
540.155609	0.233883
540.515665	0.231850
540.875665	0.237858
541.235609	0.236479
541.595496	0.236260
541.955328	0.232729
542.315102	0.235601
542.674821	0.236612
543.034483	0.236707
543.394090	0.236417
543.753640	0.238123
544.113134	0.233238
544.472571	0.236684
544.831953	0.233721
545.191278	0.237685
545.550548	0.236840
545.909761	0.233883
546.268918	0.234663
546.628019	0.232726
546.987064	0.235624
547.346053	0.237334
547.704986	0.235236
548.063863	0.235362
548.422684	0.235680
548.781449	0.237695
549.140158	0.235010
549.498811	0.238075
549.857408	0.241326
550.215949	0.236010
550.574434	0.239188
550.932864	0.236897
551.291237	0.235953
551.649555	0.237058
552.007817	0.236709
552.366022	0.237472
552.724173	0.238009
553.082267	0.238141
553.440305	0.234966
553.798288	0.239473
554.156215	0.236115
554.514086	0.236848
554.871902	0.239701
555.229661	0.239159
555.587365	0.239583
555.945014	0.241935
556.302606	0.239012
556.660143	0.241529
557.017625	0.238011
557.375050	0.240379
557.732421	0.237414
558.089735	0.239290
558.446994	0.239309
558.804197	0.238585
559.161345	0.238505
559.518437	0.242063
559.875474	0.239609
560.232455	0.239059
560.589381	0.240490
560.946251	0.240511
561.303065	0.238075
561.659825	0.239425
562.016528	0.240902
562.373177	0.243865
562.729770	0.241173
563.086307	0.243171
563.442789	0.241011
563.799216	0.243797
564.155587	0.242468
564.511904	0.243388
564.868164	0.243879
565.224370	0.243647
565.580520	0.245327
565.936615	0.245142
566.292654	0.248052
566.648638	0.245174
567.004567	0.246319
567.360441	0.246681
567.716260	0.249144
568.072023	0.246544
568.427732	0.247168
568.783385	0.249635
569.138982	0.247734
569.494525	0.247397
569.850013	0.250505
570.205445	0.248732
570.560823	0.251216
570.916145	0.253272
571.271412	0.251262
571.626625	0.253066
571.981782	0.253275
572.336884	0.254286
572.691931	0.254060
573.046923	0.255199
573.401860	0.256563
573.756743	0.258296
574.111570	0.256823
574.466342	0.257483
574.821059	0.256420
575.175722	0.259527
575.530330	0.258974
575.884882	0.259434
576.239380	0.261464
576.593823	0.262184
576.948211	0.261627
577.302544	0.265071
577.656823	0.264432
578.011047	0.264337
578.365216	0.265166
578.719330	0.267189
579.073389	0.266745
579.427394	0.268161
579.781344	0.268775
580.135239	0.270483
580.489080	0.270132
580.842866	0.272876
581.196597	0.273057
581.550273	0.271551
581.903895	0.272438
582.257463	0.270670
582.610975	0.274430
582.964434	0.273645
583.317837	0.275802
583.671186	0.276445
584.024481	0.276530
584.377721	0.278686
584.730906	0.279578
585.084037	0.278560
585.437113	0.280717
585.790135	0.279886
586.143103	0.282832
586.496016	0.284237
586.848874	0.281785
587.201679	0.281929
587.554428	0.285630
587.907124	0.284550
588.259765	0.285045
588.612352	0.285401
588.964884	0.289255
589.317362	0.289098
589.669786	0.289070
590.022155	0.287326
590.374470	0.286554
590.726731	0.288585
591.078937	0.293597
591.431090	0.289748
591.783188	0.294038
592.135232	0.294363
592.487222	0.294268
592.839157	0.292623
593.191038	0.295287
593.542866	0.296648
593.894639	0.300355
594.246358	0.298399
594.598022	0.297670
594.949633	0.301358
595.301190	0.301967
595.652692	0.301458
596.004141	0.297619
596.355535	0.305868
596.706876	0.305924
597.058162	0.308573
597.409395	0.305900
597.760573	0.303691
598.111698	0.306962
598.462768	0.307402
598.813785	0.308342
599.164748	0.309925
599.515657	0.309918
599.866511	0.313491
600.217312	0.308436
600.568060	0.314353
600.918753	0.310526
601.269392	0.311252
601.619978	0.314437
601.970510	0.312299
602.320988	0.312224
602.671412	0.310300
603.021783	0.312482
603.372100	0.313817
603.722363	0.313924
604.072572	0.314362
604.422728	0.314405
604.772830	0.316297
605.122878	0.315926
605.472872	0.316226
605.822813	0.314630
606.172701	0.317764
606.522534	0.314692
606.872314	0.314970
607.222041	0.315970
607.571714	0.313832
607.921333	0.315196
608.270899	0.315351
608.620411	0.311711
608.969870	0.315654
609.319276	0.316147
609.668627	0.315828
610.017926	0.314182
610.367171	0.313024
610.716362	0.313555
611.065500	0.313835
611.414585	0.312501
611.763616	0.312977
612.112594	0.313733
612.461518	0.313210
612.810389	0.310278
613.159207	0.313123
613.507971	0.314908
613.856682	0.310740
614.205340	0.312344
614.553945	0.309174
614.902496	0.312715
615.250994	0.310680
615.599439	0.311779
615.947830	0.310817
616.296169	0.311700
616.644454	0.311286
616.992686	0.311880
617.340864	0.309054
617.688990	0.313011
618.037063	0.309871
618.385082	0.311477
618.733048	0.308339
619.080961	0.310609
619.428821	0.310295
619.776628	0.309764
620.124382	0.311671
620.472083	0.312424
620.819731	0.311140
621.167326	0.315173
621.514868	0.315036
621.862357	0.319504
622.209793	0.318875
622.557176	0.321134
622.904506	0.322125
623.251783	0.324399
623.599007	0.326534
623.946179	0.326178
624.293297	0.328096
624.640363	0.332135
624.987376	0.332585
625.334336	0.335167
625.681243	0.337366
626.028097	0.337785
626.374899	0.339001
626.721647	0.339159
627.068343	0.342803
627.414987	0.343879
627.761577	0.345368
628.108115	0.344140
628.454600	0.348992
628.801032	0.346607
629.147412	0.348311
629.493739	0.348862
629.840014	0.351868
630.186236	0.349215
630.532405	0.355270
630.878521	0.352447
631.224585	0.354545
631.570597	0.358427
631.916556	0.356494
632.262462	0.357356
632.608316	0.358781
632.954117	0.359771
633.299866	0.360624
633.645562	0.360915
633.991206	0.365394
634.336797	0.368322
634.682336	0.370601
635.027823	0.371943
635.373257	0.373095
635.718639	0.376384
636.063968	0.375463
636.409245	0.381800
636.754470	0.381848
637.099642	0.384163
637.444762	0.387176
637.789829	0.386951
638.134845	0.389695
638.479808	0.391497
638.824719	0.390893
639.169577	0.394975
639.514383	0.393859
639.859137	0.397758
640.203839	0.397848
640.548489	0.398494
640.893086	0.399580
641.237632	0.401283
641.582125	0.399737
641.926566	0.401053
642.270955	0.401918
642.615292	0.401613
642.959576	0.400938
643.303809	0.401298
643.647990	0.400906
643.992118	0.401529
644.336195	0.405191
644.680219	0.402960
645.024192	0.404116
645.368112	0.397731
645.711981	0.396824
646.055797	0.392222
646.399562	0.393956
646.743274	0.386762
647.086935	0.383957
647.430544	0.384136
647.774101	0.382687
648.117606	0.382137
648.461059	0.382603
648.804460	0.385420
649.147810	0.390606
649.491108	0.392360
649.834354	0.394168
650.177548	0.399225
650.520690	0.404671
650.863781	0.406231
651.206820	0.405343
651.549807	0.410033
651.892742	0.413930
652.235626	0.413293
652.578458	0.414590
652.921238	0.420466
653.263967	0.418294
653.606644	0.422256
653.949269	0.421892
654.291843	0.426163
654.634365	0.422265
654.976836	0.426328
655.319255	0.425940
655.661622	0.427487
656.003938	0.427619
656.346203	0.430743
656.688416	0.428151
657.030577	0.431381
657.372687	0.433790
657.714746	0.434803
658.056753	0.431358
658.398708	0.435179
658.740612	0.437076
659.082465	0.432548
659.424266	0.433119
659.766016	0.432486
660.107715	0.435585
660.449362	0.434290
660.790958	0.434895
661.132503	0.434820
661.473996	0.433153
661.815438	0.433913
662.156829	0.434221
662.498168	0.434735
662.839456	0.436113
663.180693	0.434211
663.521879	0.434107
663.863013	0.435291
664.204097	0.433365
664.545129	0.430390
664.886110	0.430629
665.227040	0.428287
665.567918	0.430892
665.908746	0.428339
666.249522	0.428356
666.590248	0.429283
666.930922	0.427346
667.271545	0.426243
667.612118	0.426471
667.952639	0.428044
668.293109	0.426608
668.633528	0.429841
668.973896	0.429706
669.314213	0.429596
669.654480	0.431702
669.994695	0.432114
670.334859	0.432665
670.674973	0.432862
671.015035	0.432427
671.355047	0.433031
671.695008	0.434286
672.034918	0.435844
672.374777	0.434878
672.714585	0.436193
673.054342	0.436250
673.394049	0.436726
673.733705	0.434392
674.073310	0.434858
674.412864	0.438395
674.752368	0.438633
675.091820	0.438787
675.431223	0.443157
675.770574	0.442904
676.109875	0.446197
676.449125	0.446194
676.788324	0.448396
677.127473	0.454036
677.466571	0.453722
677.805619	0.454719
678.144616	0.456263
678.483562	0.458165
678.822458	0.461228
679.161303	0.461371
679.500098	0.462213
679.838842	0.463927
680.177535	0.463462
680.516179	0.461569
680.854771	0.460985
681.193314	0.454259
681.531805	0.444981
681.870247	0.434014
682.208638	0.426460
682.546978	0.425724
682.885268	0.427343
683.223508	0.433839
683.561697	0.437275
683.899836	0.440249
684.237925	0.443356
684.575963	0.445831
684.913951	0.448867
685.251889	0.445083
685.589776	0.446722
685.927614	0.449202
686.265401	0.443230
686.603137	0.444809
686.940824	0.438664
687.278460	0.437099
687.616046	0.435723
687.953582	0.431389
688.291068	0.432966
688.628504	0.428411
688.965889	0.430438
689.303224	0.434422
689.640510	0.438994
689.977745	0.444829
690.314930	0.452075
690.652065	0.456704
690.989150	0.464339
691.326185	0.470792
691.663170	0.475270
692.000105	0.482065
692.336990	0.489651
692.673825	0.491823
693.010610	0.498739
693.347345	0.504262
693.684030	0.506184
694.020665	0.510663
694.357251	0.519579
694.693786	0.519168
695.030272	0.523027
695.366707	0.527145
695.703093	0.530164
696.039429	0.528856
696.375716	0.529241
696.711952	0.532165
697.048139	0.533962
697.384276	0.536676
697.720363	0.534471
698.056400	0.534156
698.392388	0.540143
698.728326	0.542512
699.064214	0.545578
699.400053	0.545657
699.735842	0.549143
700.071581	0.552073
700.407270	0.554875
700.742910	0.557438
701.078501	0.564280
701.414042	0.564880
701.749533	0.568456
702.084974	0.576843
702.420366	0.568410
702.755709	0.576665
703.091002	0.584486
703.426246	0.577664
703.761440	0.584255
704.096584	0.588244
704.431679	0.585451
704.766725	0.587600
705.101721	0.588984
705.436668	0.585221
705.771565	0.591775
706.106413	0.589057
706.441212	0.584085
706.775961	0.582822
707.110661	0.585563
707.445311	0.581632
707.779913	0.579502
708.114465	0.577650
708.448967	0.574734
708.783421	0.566251
709.117825	0.561494
709.452180	0.561740
709.786485	0.555127
710.120742	0.544590
710.454949	0.546867
710.789107	0.538743
711.123216	0.529987
711.457275	0.531845
711.791286	0.522674
712.125247	0.521096
712.459159	0.531917
712.793023	0.524961
713.126837	0.529342
713.460602	0.529473
713.794318	0.538808
714.127985	0.537527
714.461602	0.546936
714.795171	0.550490
715.128691	0.558164
715.462162	0.565803
715.795584	0.571857
716.128957	0.574835
716.462281	0.580087
716.795556	0.584328
717.128782	0.589809
717.461960	0.599062
717.795088	0.597556
718.128167	0.603635
718.461198	0.612333
718.794180	0.613085
719.127113	0.615947
719.459997	0.619281
719.792833	0.626163
720.125619	0.627313
720.458357	0.633580
720.791046	0.633093
721.123686	0.636401
721.456278	0.642846
721.788821	0.640336
722.121315	0.644591
722.453761	0.648743
722.786158	0.646448
723.118506	0.642786
723.450805	0.650510
723.783056	0.646772
724.115259	0.644550
724.447412	0.643560
724.779518	0.645114
725.111574	0.643887
725.443582	0.639382
725.775542	0.641387
726.107453	0.635047
726.439315	0.634178
726.771129	0.631460
727.102895	0.625149
727.434612	0.617975
727.766281	0.616070
728.097901	0.616335
728.429473	0.615372
728.760996	0.613702
729.092471	0.614353
729.423897	0.617995
729.755276	0.616807
730.086606	0.616655
730.417887	0.611566
730.749120	0.602387
731.080305	0.592697
731.411442	0.588837
731.742530	0.594252
732.073570	0.593175
732.404562	0.585742
732.735506	0.586553
733.066401	0.591823
733.397249	0.600350
733.728048	0.611988
734.058798	0.624642
734.389501	0.635437
734.720156	0.644650
735.050762	0.652702
735.381320	0.653854
735.711831	0.663630
736.042293	0.668613
736.372707	0.664312
736.703073	0.668573
737.033391	0.669770
737.363661	0.667772
737.693883	0.662726
738.024056	0.661749
738.354182	0.662461
738.684260	0.651478
739.014290	0.646353
739.344272	0.648874
739.674207	0.641260
740.004093	0.641243
740.333931	0.641768
740.663722	0.641522
740.993464	0.642125
741.323159	0.646252
741.652806	0.650972
741.982405	0.655670
742.311956	0.659898
742.641460	0.662080
742.970915	0.666857
743.300323	0.674065
743.629683	0.680261
743.958996	0.682274
744.288260	0.686930
744.617477	0.692568
744.946647	0.693983
745.275768	0.699800
745.604842	0.699363
745.933869	0.709691
746.262847	0.710030
746.591778	0.703036
746.920662	0.710126
747.249498	0.716515
747.578286	0.707000
747.907027	0.703917
748.235720	0.704175
748.564365	0.698354
748.892963	0.698683
749.221514	0.701489
749.550017	0.706298
749.878473	0.706377
750.206881	0.713147
750.535242	0.715044
750.863555	0.713909
751.191821	0.715213
751.520039	0.719134
751.848210	0.722823
752.176334	0.715855
752.504411	0.715049
752.832440	0.722524
753.160421	0.727007
753.488356	0.725373
753.816243	0.722163
754.144082	0.730931
754.471875	0.734415
754.799620	0.729997
755.127318	0.731300
755.454969	0.730775
755.782572	0.730591
756.110129	0.735742
756.437638	0.737854
756.765100	0.734265
757.092515	0.732810
757.419882	0.731799
757.747203	0.737129
758.074477	0.735486
758.401703	0.733326
758.728882	0.728089
759.056014	0.727373
759.383099	0.726325
759.710138	0.727771
760.037129	0.724072
760.364073	0.718372
760.690970	0.720531
761.017820	0.726038
761.344623	0.720921
761.671379	0.713195
761.998088	0.700722
762.324751	0.678968
762.651366	0.635930
762.977935	0.568967
763.304456	0.516473
763.630931	0.507142
763.957359	0.546081
764.283740	0.590966
764.610074	0.618337
764.936362	0.649901
765.262602	0.676492
765.588796	0.697368
765.914943	0.714899
766.241044	0.733763
766.567097	0.740178
766.893104	0.749634
767.219064	0.755791
767.544978	0.762867
767.870845	0.776927
768.196665	0.780074
768.522438	0.778233
768.848165	0.780228
769.173846	0.788624
769.499479	0.793045
769.825066	0.796131
770.150607	0.801147
770.476101	0.796387
770.801548	0.799023
771.126949	0.808974
771.452303	0.812995
771.777611	0.812638
772.102872	0.811984
772.428087	0.817753
772.753256	0.820532
773.078378	0.821999
773.403453	0.830456
773.728482	0.834675
774.053465	0.828689
774.378401	0.832170
774.703291	0.841073
775.028135	0.840723
775.352932	0.841243
775.677683	0.845140
776.002388	0.845496
776.327046	0.843640
776.651658	0.848208
776.976224	0.852410
777.300743	0.851468
777.625216	0.853967
777.949643	0.856256
778.274024	0.855579
778.598359	0.856764
778.922647	0.855505
779.246889	0.855689
779.571086	0.861328
779.895236	0.863091
780.219339	0.859716
780.543397	0.857253
780.867409	0.855198
781.191374	0.858097
781.515294	0.860306
781.839167	0.857557
782.162995	0.861568
782.486776	0.858433
782.810511	0.859270
783.134201	0.863053
783.457844	0.860837
783.781441	0.863979
784.104993	0.869565
784.428498	0.869980
784.751958	0.865266
785.075372	0.867064
785.398739	0.872111
785.722061	0.868389
786.045337	0.862960
786.368568	0.868049
786.691752	0.870259
787.014891	0.855980
787.337983	0.847219
787.661030	0.840030
787.984031	0.822157
788.306987	0.809132
788.629897	0.811887
788.952760	0.815459
789.275579	0.819578
789.598351	0.834884
789.921078	0.848619
790.243759	0.849670
790.566395	0.854497
790.888984	0.861922
791.211529	0.867852
791.534027	0.870107
791.856480	0.873662
792.178888	0.877504
792.501249	0.880025
792.823566	0.881671
793.145836	0.881292
793.468062	0.883300
793.790241	0.883675
794.112375	0.882005
794.434464	0.876984
794.756507	0.876626
795.078505	0.875975
795.400457	0.871272
795.722364	0.858748
796.044226	0.852271
796.366042	0.850600
796.687812	0.854054
797.009538	0.850489
797.331218	0.853278
797.652852	0.858297
797.974442	0.862987
798.295986	0.863393
798.617484	0.865316
798.938938	0.870059
799.260346	0.874792
799.581709	0.876317
799.903026	0.878805
800.224299	0.879524
800.545526	0.883426
800.866708	0.887562
801.187845	0.891504
801.508936	0.890198
801.829983	0.889320
802.150984	0.891237
802.471940	0.896917
802.792851	0.896214
803.113717	0.897900
803.434538	0.895637
803.755314	0.898632
804.076045	0.899032
804.396731	0.899091
804.717372	0.898955
805.037967	0.901234
805.358518	0.898138
805.679024	0.896541
805.999485	0.895743
806.319901	0.896699
806.640272	0.896998
806.960598	0.895765
807.280879	0.891969
807.601115	0.890986
807.921306	0.895016
808.241453	0.895595
808.561554	0.893374
808.881611	0.892482
809.201623	0.895335
809.521590	0.894972
809.841513	0.895276
810.161390	0.894650
810.481223	0.895845
810.801011	0.899960
811.120755	0.901393
811.440453	0.901815
811.760107	0.899654
812.079716	0.899597
812.399281	0.903385
812.718801	0.905429
813.038276	0.906005
813.357707	0.905733
813.677093	0.902591
813.996434	0.906340
814.315731	0.907236
814.634983	0.908500
814.954191	0.906494
815.273354	0.904140
815.592473	0.900236
815.911547	0.899565
816.230577	0.898305
816.549562	0.895178
816.868502	0.896513
817.187399	0.892763
817.506250	0.887688
817.825058	0.888300
818.143821	0.885574
818.462539	0.879808
818.781213	0.872017
819.099843	0.860044
819.418429	0.844798
819.736970	0.827755
820.055466	0.807825
820.373919	0.781995
820.692327	0.749934
821.010691	0.713910
821.329011	0.636129
821.647286	0.520117
821.965517	0.405205
822.283704	0.362139
822.601847	0.363209
822.919945	0.398947
823.237999	0.433346
823.556010	0.480161
823.873976	0.536518
824.191897	0.587459
824.509775	0.631350
824.827609	0.675394
825.145398	0.698205
825.463144	0.701438
825.780845	0.685137
826.098502	0.665803
826.416116	0.619243
826.733685	0.575036
827.051210	0.566520
827.368692	0.581317
827.686129	0.618647
828.003522	0.672660
828.320872	0.720081
828.638177	0.763753
828.955439	0.797543
829.272656	0.819882
829.589830	0.836907
829.906960	0.853569
830.224046	0.865129
830.541088	0.876032
830.858086	0.879678
831.175041	0.886654
831.491952	0.885792
831.808819	0.882320
832.125642	0.876018
832.442421	0.860199
832.759157	0.837422
833.075849	0.792651
833.392497	0.728143
833.709101	0.686112
834.025662	0.696324
834.342179	0.727662
834.658653	0.767681
834.975083	0.803565
835.291469	0.830518
835.607811	0.853260
835.924110	0.869238
836.240366	0.885798
836.556578	0.899928
836.872746	0.907918
837.188871	0.913883
837.504952	0.919145
837.820990	0.922518
838.136984	0.926447
838.452935	0.928223
838.768842	0.929650
839.084706	0.923837
839.400526	0.899149
839.716303	0.857360
840.032037	0.835904
840.347727	0.838413
840.663373	0.857063
840.978977	0.878690
841.294537	0.900835
841.610054	0.917181
841.925527	0.925772
842.240957	0.931864
842.556344	0.938689
842.871687	0.945733
843.186987	0.949331
843.502244	0.949339
843.817458	0.951307
844.132629	0.954878
844.447756	0.959672
844.762840	0.958958
845.077881	0.959166
845.392879	0.959575
845.707833	0.961558
846.022745	0.963652
846.337613	0.964019
846.652438	0.965416
846.967221	0.964861
847.281960	0.964751
847.596656	0.968139
847.911309	0.965226
848.225919	0.967805
848.540485	0.967157
848.855009	0.968114
849.169490	0.967711
849.483928	0.968869
849.798323	0.969341
850.112675	0.968413
850.426984	0.968914
850.741251	0.969164
851.055474	0.969695
851.369654	0.967011
851.683792	0.968790
851.997887	0.969526
852.311938	0.970450
852.625947	0.969965
852.939914	0.967005
853.253837	0.970371
853.567718	0.970351
853.881555	0.970498
854.195350	0.967937
854.509103	0.969454
854.822812	0.968784
855.136479	0.971097
855.450103	0.968804
855.763685	0.968761
856.077224	0.968790
856.390720	0.970161
856.704173	0.970358
857.017584	0.968573
857.330953	0.965457
857.644278	0.967273
857.957561	0.967576
858.270802	0.967596
858.584000	0.968189
858.897155	0.965900
859.210268	0.966278
859.523339	0.968303
859.836367	0.969305
860.149352	0.970319
860.462295	0.968179
860.775195	0.969230
861.088054	0.969136
861.400869	0.968061
861.713642	0.970586
862.026373	0.969936
862.339062	0.970378
862.651708	0.967756
862.964312	0.966474
863.276873	0.968436
863.589392	0.967822
863.901869	0.965874
864.214303	0.963871
864.526696	0.963950
864.839045	0.963247
865.151353	0.961489
865.463619	0.962554
865.775842	0.962396
866.088023	0.961666
866.400162	0.961749
866.712258	0.962777
867.024313	0.961836
867.336325	0.962081
867.648296	0.962459
867.960224	0.962637
868.272110	0.960669
868.583954	0.963386
868.895755	0.962417
869.207515	0.960713
869.519233	0.960649
869.830909	0.960927
870.142542	0.960815
870.454134	0.960823
870.765684	0.959928
871.077191	0.957536
871.388657	0.958706
871.700081	0.957300
872.011463	0.958638
872.322803	0.957523
872.634101	0.956468
872.945357	0.953101
873.256571	0.952762
873.567744	0.951985
873.878874	0.952972
874.189963	0.951943
874.501010	0.951204
874.812015	0.949792
875.122979	0.949974
875.433900	0.951941
875.744780	0.952774
876.055618	0.951187
876.366415	0.949170
876.677169	0.949133
876.987882	0.950126
877.298554	0.950433
877.609183	0.945665
877.919771	0.944223
878.230317	0.941733
878.540822	0.939100
878.851285	0.934641
879.161707	0.925509
879.472087	0.913588
879.782425	0.896728
880.092722	0.862799
880.402977	0.809407
880.713191	0.748466
881.023363	0.688168
881.333494	0.653160
881.643583	0.625345
881.953631	0.625757
882.263637	0.653924
882.573602	0.693107
882.883526	0.719363
883.193408	0.743744
883.503248	0.766604
883.813048	0.794462
884.122806	0.824649
884.432522	0.847951
884.742197	0.868263
885.051831	0.879018
885.361424	0.889741
885.670975	0.901459
885.980485	0.912411
886.289954	0.917761
886.599382	0.923159
886.908768	0.927270
887.218113	0.933668
887.527417	0.937454
887.836680	0.941260
888.145901	0.942662
888.455082	0.944933
888.764221	0.949292
889.073319	0.951684
889.382376	0.952413
889.691392	0.951528
890.000366	0.952031
890.309300	0.953985
890.618193	0.951007
890.927044	0.950785
891.235855	0.951242
891.544625	0.950194
891.853353	0.950821
892.162041	0.948040
892.470687	0.942512
892.779293	0.936938
893.087858	0.931987
893.396381	0.924757
893.704864	0.911541
894.013306	0.887882
894.321707	0.860120
894.630068	0.844618
894.938387	0.840311
895.246665	0.841300
895.554903	0.853479
895.863100	0.867960
896.171256	0.885030
896.479371	0.903474
896.787446	0.918352
897.095480	0.923554
897.403473	0.926596
897.711425	0.930909
898.019336	0.938590
898.327207	0.941840
898.635038	0.943713
898.942827	0.943702
899.250576	0.946342
899.558284	0.951898
899.865952	0.952638
900.173579	0.954619
900.481165	0.954659
900.788711	0.958906
901.096216	0.960622
901.403681	0.960613
901.711105	0.962499
902.018489	0.962316
902.325832	0.961846
902.633135	0.961352
902.940397	0.954310
903.247619	0.942160
903.554800	0.916776
903.861941	0.877382
904.169041	0.840243
904.476101	0.821716
904.783121	0.822737
905.090100	0.839024
905.397039	0.861337
905.703938	0.883599
906.010796	0.904689
906.317614	0.920668
906.624391	0.933263
906.931129	0.942428
907.237826	0.949994
907.544483	0.958426
907.851099	0.961747
908.157675	0.968091
908.464211	0.969106
908.770707	0.971499
909.077163	0.973879
909.383578	0.973689
909.689954	0.974378
909.996289	0.974587
910.302584	0.977975
910.608839	0.979648
910.915054	0.978099
911.221229	0.976737
911.527363	0.976183
911.833458	0.977317
912.139513	0.976883
912.445527	0.974671
912.751502	0.972708
913.057436	0.971793
913.363331	0.969447
913.669186	0.965846
913.975000	0.960531
914.280775	0.953408
914.586510	0.947134
914.892205	0.933532
915.197859	0.912251
915.503475	0.883683
915.809050	0.864234
916.114585	0.858075
916.420081	0.854997
916.725536	0.850877
917.030952	0.860752
917.336328	0.873430
917.641665	0.888751
917.946961	0.905460
918.252218	0.916312
918.557435	0.926035
918.862612	0.934035
919.167750	0.940521
919.472848	0.946039
919.777906	0.951448
920.082925	0.956730
920.387904	0.961725
920.692843	0.960913
920.997743	0.963158
921.302603	0.966362
921.607423	0.967716
921.912204	0.969918
922.216946	0.971269
922.521647	0.973271
922.826310	0.974586
923.130932	0.976495
923.435516	0.977311
923.740059	0.979876
924.044564	0.977552
924.349028	0.980522
924.653454	0.982065
924.957840	0.983556
925.262186	0.983736
925.566493	0.983216
925.870761	0.984571
926.174989	0.985218
926.479178	0.989018
926.783328	0.988293
927.087438	0.988164
927.391509	0.987510
927.695541	0.989538
927.999533	0.988396
928.303486	0.988856
928.607400	0.991516
928.911275	0.988800
929.215110	0.990049
929.518906	0.990404
929.822663	0.989748
930.126381	0.990888
930.430060	0.989830
930.733699	0.990482
931.037299	0.989341
931.340861	0.989986
931.644383	0.988568
931.947866	0.989818
932.251309	0.990552
932.554714	0.989553
932.858080	0.990354
933.161407	0.988874
933.464694	0.990860
933.767943	0.988982
934.071153	0.990906
934.374323	0.991271
934.677455	0.991218
934.980548	0.991264
935.283602	0.990946
935.586617	0.991625
935.889593	0.990432
936.192530	0.990284
936.495428	0.990827
936.798287	0.991366
937.101108	0.990319
937.403890	0.988826
937.706632	0.988555
938.009336	0.985886
938.312002	0.985647
938.614628	0.984266
938.917216	0.982476
939.219765	0.980247
939.522275	0.982449
939.824747	0.982001
940.127179	0.982606
940.429573	0.983606
940.731929	0.983432
941.034246	0.984070
941.336524	0.984488
941.638763	0.985736
941.940964	0.986237
942.243126	0.986284
942.545250	0.986962
942.847335	0.987924
943.149381	0.987674
943.451389	0.987479
943.753359	0.989256
944.055290	0.990459
944.357182	0.989754
944.659036	0.988053
944.960851	0.989392
945.262628	0.990570
945.564367	0.989641
945.866067	0.988548
946.167729	0.989349
946.469352	0.990143
946.770937	0.987902
947.072484	0.991342
947.373992	0.989284
947.675462	0.988768
947.976893	0.988911
948.278286	0.989975
948.579641	0.991000
948.880958	0.988985
949.182236	0.989419
949.483476	0.991044
949.784678	0.989575
950.085841	0.990277
950.386967	0.989706
950.688054	0.991022
950.989103	0.990181
951.290114	0.989421
951.591087	0.988554
951.892021	0.988380
952.192917	0.988693
952.493776	0.988258
952.794596	0.987071
953.095378	0.988197
953.396122	0.987101
953.696828	0.986726
953.997496	0.988867
954.298126	0.989489
954.598718	0.989061
954.899272	0.990539
955.199788	0.990789
955.500266	0.991546
955.800706	0.992006
956.101108	0.992864
956.401472	0.993400
956.701798	0.993226
957.002087	0.993403
957.302337	0.992723
957.602550	0.994922
957.902724	0.994601
958.202861	0.995324
958.502960	0.995055
958.803022	0.994050
959.103045	0.995952
959.403031	0.995642
959.702979	0.994677
960.002889	0.996172
960.302762	0.995216
960.602596	0.995910
960.902393	0.994543
961.202153	0.995799
961.501875	0.996846
961.801559	0.995468
962.101205	0.996162
962.400814	0.996455
962.700385	0.996568
962.999918	0.995271
963.299414	0.997304
963.598873	0.994903
963.898293	0.995975
964.197677	0.995986
964.497022	0.996467
964.796331	0.996422
965.095601	0.995660
965.394835	0.997118
965.694030	0.997235
965.993189	0.996479
966.292309	0.996563
966.591393	0.997407
966.890439	0.996966
967.189447	0.996729
967.488419	0.997157
967.787353	0.997266
968.086249	0.996868
968.385108	0.996684
968.683930	0.996530
968.982714	0.997572
969.281462	0.997853
969.580172	0.997387
969.878844	0.996762
970.177480	0.996677
970.476078	0.996801
970.774639	0.996308
971.073162	0.996895
971.371649	0.996497
971.670098	0.996062
971.968510	0.997534
972.266885	0.996036
972.565223	0.995147
972.863524	0.996442
973.161788	0.996130
973.460014	0.996912
973.758204	0.995812
974.056356	0.995625
974.354471	0.995455
974.652550	0.996005
974.950591	0.996527
975.248595	0.996116
975.546563	0.996055
975.844493	0.998315
976.142386	0.996648
976.440243	0.997654
976.738062	0.996151
977.035845	0.998289
977.333590	0.996677
977.631299	0.998264
977.928971	0.996463
978.226606	0.996397
978.524204	0.996254
978.821765	0.997282
979.119290	0.996250
979.416777	0.996582
979.714228	0.997417
980.011642	0.995001
980.309020	0.996983
980.606360	0.997672
980.903664	0.997831
981.200931	0.996242
981.498162	0.995778
981.795356	0.993531
982.092513	0.993334
982.389633	0.993524
982.686717	0.991013
982.983764	0.992188
983.280775	0.989471
983.577749	0.990687
983.874686	0.992089
984.171587	0.991278
984.468451	0.993688
984.765279	0.995111
985.062070	0.993365
985.358824	0.995042
985.655543	0.995103
985.952224	0.996367
986.248869	0.996866
986.545478	0.996412
986.842050	0.998074
987.138586	0.995171
987.435086	0.996916
987.731549	0.998233
988.027975	0.997042
988.324366	0.997217
988.620719	0.998027
988.917037	0.995609
989.213318	0.998706
989.509563	0.998051
989.805772	0.998281
990.101944	0.998002
990.398080	0.996684
990.694180	0.997436
990.990244	0.997063
991.286271	0.997909
991.582262	0.998114
991.878217	0.997233
992.174136	0.998132
992.470019	0.998843
992.765865	0.997558
993.061676	0.998696
993.357450	0.997437
993.653188	0.996515
993.948890	0.996557
994.244556	0.995958
994.540186	0.997084
994.835780	0.997037
995.131337	0.997765
995.426859	0.996197
995.722345	0.998724
996.017795	0.996428
996.313208	0.994891
996.608586	0.995805
996.903928	0.996102
997.199234	0.994796
997.494504	0.996506
997.789738	0.995596
998.084936	0.996657
998.380099	0.999053
998.675225	0.997648
998.970316	0.998157
999.265371	0.998700
999.560390	0.997640
999.855373	0.997442
1000.150320	0.997839
1000.445232	0.998487
1000.740108	0.997822
1001.034948	0.997633
1001.329752	0.999332
1001.624521	0.998474
1001.919254	0.998640
1002.213951	0.997608
1002.508613	0.997949
1002.803239	0.998939
1003.097829	0.998758
1003.392384	0.999592
1003.686903	0.998635
1003.981386	0.998311
1004.275834	0.998465
1004.570246	0.997843
1004.864623	0.998721
1005.158964	0.999889
1005.453270	0.998976
1005.747540	0.997670
1006.041775	0.998941
1006.335974	0.999321
1006.630138	0.998821
1006.924266	0.999447
1007.218359	1.001085
1007.512416	0.998882
1007.806438	0.999175
1008.100425	0.999666
1008.394376	0.998297
1008.688292	0.998181
1008.982172	0.999937
1009.276017	0.999469
1009.569827	0.998768
1009.863602	0.998649
1010.157341	0.998512
1010.451045	0.999878
1010.744714	0.998575
1011.038347	0.998746
1011.331945	0.998256
1011.625508	0.998374
1011.919036	0.998539
1012.212528	0.998395
1012.505986	0.997472
1012.799408	0.999718
1013.092795	0.998958
1013.386147	0.999400
1013.679464	0.999382
1013.972745	0.997128
1014.265992	0.997230
1014.559204	0.997734
1014.852380	0.998515
1015.145521	0.999056
1015.438628	0.998504
1015.731699	0.998000
1016.024736	0.998291
1016.317737	0.998568
1016.610703	0.997874
1016.903635	0.998941
1017.196531	0.998863
1017.489393	0.999589
1017.782219	0.998180
1018.075011	0.998530
1018.367768	0.998873
1018.660490	0.998838
1018.953177	0.998838
1019.245829	0.998838
