Dividing Wavelength (nm)	Counts (n)	Blue Motor Position (mm): 0.000000	Red Motor Position (mm): 11.700000	
326.493990	1.001443
326.888308	1.001443
327.282561	1.001443
327.676750	1.000075
328.070874	0.999637
328.464933	1.000151
328.858929	0.999472
329.252859	1.000908
329.646726	0.999617
330.040528	1.000195
330.434265	0.999265
330.827938	1.000153
331.221547	1.001830
331.615091	1.000218
332.008571	1.000379
332.401986	0.999665
332.795338	1.000819
333.188625	0.999379
333.581847	1.001089
333.975006	0.999320
334.368100	1.000058
334.761129	1.000753
335.154095	1.000256
335.546996	0.997271
335.939833	0.992344
336.332606	0.992699
336.725315	0.994934
337.117960	0.995602
337.510540	0.994385
337.903056	0.993560
338.295508	0.993694
338.687896	0.993387
339.080220	0.994558
339.472480	0.993515
339.864676	0.993665
340.256807	0.994680
340.648875	0.994183
341.040879	0.994658
341.432818	0.993067
341.824694	0.993274
342.216506	0.994576
342.608253	0.994229
342.999937	0.993217
343.391557	0.993802
343.783113	0.994236
344.174605	0.994832
344.566033	0.994012
344.957397	0.993344
345.348697	0.993544
345.739934	0.993485
346.131106	0.992705
346.522215	0.993012
346.913260	0.993690
347.304241	0.993735
347.695159	0.994090
348.086012	0.992506
348.476802	0.994442
348.867528	0.992765
349.258191	0.992051
349.648789	0.994891
350.039324	0.993132
350.429796	0.994219
350.820203	0.993850
351.210548	0.994240
351.600828	0.992937
351.991045	0.993348
352.381198	0.991257
352.771288	0.993958
353.161314	0.993079
353.551276	0.994908
353.941175	0.993415
354.331010	0.993287
354.720782	0.993366
355.110490	0.993446
355.500135	0.994675
355.889717	0.993620
356.279235	0.993692
356.668689	0.992990
357.058080	0.993901
357.447408	0.994733
357.836672	0.994904
358.225873	0.993851
358.615010	0.994166
359.004084	0.994343
359.393095	0.993915
359.782043	0.993536
360.170927	0.993944
360.559748	0.994285
360.948505	0.993220
361.337199	0.993152
361.725830	0.993573
362.114398	0.993200
362.502903	0.994593
362.891344	0.994104
363.279722	0.993014
363.668037	0.994506
364.056289	0.992711
364.444478	0.994487
364.832603	0.993422
365.220665	0.993165
365.608665	0.993230
365.996601	0.993183
366.384474	0.992286
366.772284	0.993061
367.160031	0.991709
367.547715	0.991302
367.935336	0.993889
368.322893	0.993561
368.710388	0.992142
369.097820	0.992134
369.485189	0.992157
369.872495	0.992800
370.259738	0.991874
370.646918	0.992571
371.034035	0.992301
371.421090	0.991889
371.808081	0.992205
372.195010	0.992890
372.581875	0.992161
372.968678	0.992145
373.355418	0.991380
373.742096	0.992208
374.128710	0.993042
374.515262	0.992294
374.901751	0.992496
375.288177	0.992902
375.674540	0.992713
376.060841	0.991703
376.447079	0.992783
376.833254	0.993247
377.219367	0.993169
377.605417	0.993421
377.991404	0.992687
378.377329	0.991824
378.763191	0.991937
379.148991	0.993056
379.534727	0.992231
379.920402	0.992027
380.306013	0.993137
380.691563	0.994030
381.077049	0.992503
381.462474	0.992511
381.847835	0.992848
382.233134	0.991409
382.618371	0.992382
383.003545	0.991861
383.388657	0.990390
383.773706	0.991500
384.158693	0.989363
384.543618	0.989300
384.928480	0.988007
385.313280	0.985158
385.698017	0.984047
386.082692	0.981888
386.467305	0.979210
386.851856	0.975094
387.236344	0.971368
387.620770	0.967194
388.005133	0.964010
388.389435	0.960640
388.773674	0.955152
389.157851	0.949764
389.541965	0.944495
389.926018	0.940822
390.310008	0.934715
390.693936	0.927036
391.077802	0.921364
391.461606	0.914526
391.845348	0.905124
392.229027	0.900908
392.612645	0.892295
392.996200	0.881894
393.379694	0.871858
393.763125	0.861368
394.146494	0.854492
394.529801	0.841866
394.913047	0.831871
395.296230	0.825397
395.679351	0.814593
396.062410	0.803503
396.445408	0.797286
396.828343	0.786135
397.211217	0.774401
397.594028	0.774100
397.976778	0.759685
398.359466	0.749265
398.742092	0.737787
399.124656	0.737878
399.507158	0.722341
399.889598	0.713547
400.271977	0.699972
400.654294	0.696089
401.036549	0.687233
401.418742	0.684167
401.800874	0.665744
402.182944	0.657612
402.564952	0.643946
402.946898	0.641129
403.328783	0.635442
403.710606	0.639566
404.092367	0.613397
404.474067	0.612793
404.855705	0.607108
405.237282	0.611950
405.618797	0.595438
406.000250	0.587572
406.381642	0.575908
406.762972	0.576950
407.144240	0.572808
407.525447	0.570425
407.906593	0.560843
408.287677	0.554146
408.668700	0.559966
409.049661	0.552290
409.430560	0.546430
409.811399	0.552655
410.192176	0.533326
410.572891	0.539007
410.953545	0.527508
411.334138	0.538716
411.714669	0.530839
412.095139	0.540889
412.475547	0.525559
412.855894	0.527035
413.236180	0.525352
413.616405	0.531026
413.996568	0.521165
414.376670	0.527322
414.756711	0.531410
415.136691	0.528375
415.516609	0.519935
415.896466	0.515564
416.276262	0.511424
416.655997	0.512780
417.035670	0.494421
417.415283	0.486455
417.794834	0.490632
418.174324	0.495601
418.553753	0.505620
418.933121	0.487339
419.312428	0.481338
419.691674	0.487165
420.070859	0.475145
420.449983	0.483565
420.829045	0.473196
421.208047	0.481875
421.586988	0.475447
421.965867	0.473840
422.344686	0.462932
422.723444	0.475399
423.102141	0.492177
423.480777	0.464902
423.859352	0.485452
424.237866	0.462376
424.616319	0.463539
424.994712	0.454087
425.373044	0.464847
425.751314	0.453112
426.129524	0.468981
426.507673	0.452918
426.885762	0.446217
427.263789	0.452223
427.641756	0.461211
428.019662	0.452429
428.397508	0.451080
428.775292	0.455541
429.153016	0.447284
429.530679	0.453260
429.908282	0.447255
430.285824	0.456537
430.663305	0.434952
431.040726	0.456308
431.418086	0.457027
431.795385	0.448000
432.172624	0.446421
432.549802	0.447474
432.926920	0.446516
433.303977	0.445170
433.680974	0.442742
434.057910	0.441181
434.434786	0.441236
434.811601	0.443279
435.188355	0.425207
435.565050	0.434932
435.941683	0.436423
436.318257	0.420861
436.694770	0.421250
437.071222	0.419486
437.447614	0.423899
437.823946	0.430284
438.200218	0.420371
438.576429	0.429574
438.952580	0.422944
439.328670	0.419413
439.704700	0.426054
440.080670	0.426627
440.456580	0.408069
440.832429	0.415859
441.208218	0.427033
441.583947	0.415899
441.959616	0.416182
442.335224	0.420576
442.710773	0.412200
443.086261	0.409643
443.461689	0.423507
443.837057	0.413435
444.212365	0.403365
444.587612	0.409912
444.962800	0.400071
445.337927	0.401816
445.712995	0.427874
446.088002	0.390366
446.462949	0.400956
446.837837	0.405144
447.212664	0.394266
447.587431	0.385703
447.962139	0.356246
448.336786	0.315942
448.711374	0.326021
449.085901	0.369848
449.460369	0.374075
449.834776	0.377925
450.209124	0.357007
450.583412	0.349807
450.957640	0.343105
451.331808	0.354036
451.705917	0.377953
452.079965	0.381951
452.453954	0.370189
452.827883	0.376890
453.201752	0.371518
453.575562	0.383550
453.949311	0.371688
454.323001	0.377807
454.696632	0.373651
455.070202	0.366673
455.443713	0.358531
455.817164	0.353180
456.190556	0.348930
456.563888	0.345330
456.937160	0.343014
457.310373	0.360616
457.683526	0.359440
458.056619	0.364832
458.429653	0.365608
458.802628	0.369076
459.175542	0.363088
459.548398	0.345864
459.921194	0.338375
460.293930	0.338106
460.666607	0.316024
461.039224	0.304282
461.411782	0.300048
461.784280	0.299370
462.156719	0.303371
462.529099	0.307943
462.901419	0.323936
463.273680	0.328201
463.645882	0.327780
464.018024	0.333786
464.390106	0.326596
464.762130	0.311337
465.134094	0.294027
465.505999	0.263594
465.877845	0.233971
466.249631	0.221285
466.621358	0.228542
466.993026	0.242424
467.364634	0.248731
467.736184	0.257295
468.107674	0.265952
468.479105	0.264965
468.850477	0.271925
469.221790	0.278886
469.593043	0.289195
469.964238	0.293894
470.335373	0.293173
470.706449	0.291161
471.077467	0.291654
471.448425	0.253973
471.819324	0.229784
472.190164	0.229079
472.560945	0.257788
472.931667	0.279985
473.302330	0.284131
473.672934	0.296111
474.043479	0.284129
474.413965	0.286024
474.784393	0.289418
475.154761	0.284471
475.525070	0.281291
475.895321	0.287066
476.265513	0.281724
476.635645	0.276624
477.005719	0.276901
477.375734	0.273421
477.745691	0.266565
478.115588	0.263043
478.485427	0.256805
478.855207	0.243344
479.224928	0.226256
479.594591	0.214311
479.964194	0.217503
480.333739	0.218948
480.703226	0.220360
481.072653	0.218707
481.442022	0.214249
481.811333	0.210995
482.180584	0.214456
482.549777	0.219598
482.918912	0.222995
483.287988	0.222808
483.657005	0.222284
484.025964	0.228726
484.394864	0.225877
484.763706	0.226784
485.132489	0.231709
485.501213	0.232223
485.869879	0.230639
486.238487	0.234168
486.607036	0.231959
486.975527	0.236510
487.343959	0.232407
487.712333	0.231413
488.080648	0.233004
488.448905	0.231943
488.817104	0.233222
489.185244	0.227932
489.553326	0.224662
489.921350	0.214765
490.289315	0.197103
490.657222	0.192151
491.025070	0.193496
491.392861	0.195368
491.760593	0.201187
492.128267	0.206685
492.495883	0.212378
492.863440	0.218581
493.230939	0.224804
493.598380	0.226255
493.965763	0.228203
494.333088	0.230778
494.700354	0.231972
495.067563	0.231096
495.434713	0.234386
495.801805	0.232344
496.168839	0.233580
496.535815	0.235059
496.902733	0.235068
497.269593	0.236588
497.636395	0.234277
498.003139	0.234793
498.369825	0.238028
498.736453	0.234139
499.103023	0.235467
499.469535	0.235214
499.835989	0.235193
500.202385	0.236508
500.568723	0.239563
500.935003	0.234771
501.301226	0.238809
501.667390	0.233344
502.033497	0.231296
502.399546	0.234404
502.765537	0.236074
503.131470	0.234492
503.497345	0.230713
503.863163	0.239710
504.228923	0.232282
504.594625	0.231204
504.960269	0.236504
505.325856	0.231734
505.691385	0.236079
506.056856	0.233020
506.422270	0.232405
506.787625	0.234912
507.152924	0.232254
507.518164	0.232905
507.883347	0.234366
508.248472	0.236207
508.613540	0.231362
508.978550	0.233666
509.343503	0.234020
509.708398	0.231734
510.073236	0.229388
510.438016	0.229544
510.802738	0.230478
511.167403	0.229267
511.532010	0.231469
511.896561	0.226677
512.261053	0.225507
512.625488	0.227425
512.989866	0.227875
513.354186	0.228304
513.718449	0.230015
514.082655	0.226335
514.446803	0.228909
514.810894	0.226187
515.174927	0.229028
515.538904	0.228382
515.902822	0.225332
516.266684	0.227756
516.630488	0.228900
516.994235	0.227602
517.357925	0.226381
517.721558	0.224811
518.085133	0.224325
518.448651	0.224461
518.812112	0.226524
519.175516	0.226192
519.538863	0.223753
519.902152	0.225308
520.265385	0.222215
520.628560	0.223763
520.991678	0.224698
521.354739	0.223299
521.717743	0.224780
522.080690	0.225015
522.443580	0.222412
522.806413	0.223274
523.169189	0.222486
523.531908	0.221587
523.894569	0.225152
524.257174	0.225206
524.619722	0.222823
524.982213	0.223855
525.344647	0.222535
525.707025	0.223537
526.069345	0.221665
526.431608	0.223282
526.793815	0.221279
527.155964	0.225374
527.518057	0.224326
527.880093	0.225576
528.242072	0.223826
528.603995	0.225990
528.965860	0.227480
529.327669	0.226423
529.689421	0.227203
530.051117	0.228249
530.412755	0.225861
530.774337	0.228327
531.135862	0.228567
531.497331	0.228112
531.858743	0.230439
532.220098	0.227570
532.581396	0.230030
532.942638	0.230232
533.303824	0.231430
533.664953	0.231395
534.026025	0.232825
534.387040	0.230884
534.747999	0.230830
535.108902	0.229601
535.469748	0.234630
535.830537	0.232428
536.191270	0.232929
536.551947	0.232622
536.912567	0.232489
537.273131	0.234394
537.633638	0.234688
537.994089	0.234875
538.354483	0.236027
538.714821	0.233060
539.075103	0.232605
539.435328	0.233443
539.795497	0.237134
540.155609	0.233655
540.515665	0.232070
540.875665	0.237667
541.235609	0.235700
541.595496	0.235957
541.955328	0.232720
542.315102	0.235455
542.674821	0.236133
543.034483	0.236485
543.394090	0.236250
543.753640	0.238011
544.113134	0.232984
544.472571	0.236478
544.831953	0.233317
545.191278	0.237432
545.550548	0.236883
545.909761	0.233668
546.268918	0.234408
546.628019	0.232578
546.987064	0.235463
547.346053	0.237149
547.704986	0.235034
548.063863	0.235202
548.422684	0.235746
548.781449	0.237333
549.140158	0.234935
549.498811	0.237999
549.857408	0.241283
550.215949	0.235776
550.574434	0.238632
550.932864	0.236913
551.291237	0.235343
551.649555	0.236859
552.007817	0.236745
552.366022	0.237364
552.724173	0.237477
553.082267	0.237709
553.440305	0.234814
553.798288	0.239172
554.156215	0.235935
554.514086	0.236415
554.871902	0.239999
555.229661	0.238775
555.587365	0.239365
555.945014	0.242068
556.302606	0.238670
556.660143	0.241039
557.017625	0.237871
557.375050	0.240027
557.732421	0.237085
558.089735	0.239161
558.446994	0.239220
558.804197	0.238320
559.161345	0.238256
559.518437	0.241645
559.875474	0.239529
560.232455	0.239205
560.589381	0.240070
560.946251	0.240453
561.303065	0.237589
561.659825	0.239191
562.016528	0.240591
562.373177	0.243468
562.729770	0.240873
563.086307	0.243032
563.442789	0.240732
563.799216	0.243649
564.155587	0.242137
564.511904	0.243389
564.868164	0.243696
565.224370	0.243122
565.580520	0.245261
565.936615	0.244945
566.292654	0.247991
566.648638	0.244934
567.004567	0.245869
567.360441	0.246531
567.716260	0.248755
568.072023	0.246107
568.427732	0.247281
568.783385	0.249473
569.138982	0.247370
569.494525	0.247168
569.850013	0.250011
570.205445	0.248687
570.560823	0.251001
570.916145	0.253132
571.271412	0.251522
571.626625	0.252757
571.981782	0.253030
572.336884	0.254092
572.691931	0.253775
573.046923	0.254941
573.401860	0.256326
573.756743	0.257875
574.111570	0.256749
574.466342	0.257200
574.821059	0.256512
575.175722	0.259411
575.530330	0.259020
575.884882	0.259240
576.239380	0.261311
576.593823	0.261978
576.948211	0.261311
577.302544	0.264429
577.656823	0.264090
578.011047	0.264416
578.365216	0.264787
578.719330	0.267035
579.073389	0.266828
579.427394	0.268180
579.781344	0.268882
580.135239	0.270250
580.489080	0.269856
580.842866	0.272757
581.196597	0.272797
581.550273	0.271600
581.903895	0.272298
582.257463	0.270840
582.610975	0.274123
582.964434	0.273264
583.317837	0.275787
583.671186	0.276156
584.024481	0.276321
584.377721	0.278551
584.730906	0.279653
585.084037	0.278292
585.437113	0.280450
585.790135	0.279773
586.143103	0.282908
586.496016	0.283953
586.848874	0.281569
587.201679	0.281948
587.554428	0.285378
587.907124	0.284382
588.259765	0.284735
588.612352	0.285585
588.964884	0.289136
589.317362	0.288862
589.669786	0.288769
590.022155	0.287342
590.374470	0.286523
590.726731	0.288849
591.078937	0.293129
591.431090	0.289798
591.783188	0.293811
592.135232	0.293994
592.487222	0.294777
592.839157	0.292559
593.191038	0.294521
593.542866	0.296996
593.894639	0.300281
594.246358	0.298169
594.598022	0.297605
594.949633	0.301284
595.301190	0.301840
595.652692	0.301622
596.004141	0.297442
596.355535	0.305372
596.706876	0.305884
597.058162	0.308425
597.409395	0.305839
597.760573	0.303436
598.111698	0.306374
598.462768	0.307095
598.813785	0.308317
599.164748	0.309712
599.515657	0.309520
599.866511	0.313311
600.217312	0.308650
600.568060	0.314118
600.918753	0.310365
601.269392	0.310920
601.619978	0.314829
601.970510	0.312229
602.320988	0.311931
602.671412	0.310073
603.021783	0.312209
603.372100	0.313710
603.722363	0.313484
604.072572	0.314588
604.422728	0.314371
604.772830	0.315966
605.122878	0.315827
605.472872	0.316665
605.822813	0.314520
606.172701	0.317568
606.522534	0.314873
606.872314	0.314728
607.222041	0.315688
607.571714	0.314053
607.921333	0.315411
608.270899	0.314714
608.620411	0.311563
608.969870	0.315679
609.319276	0.315842
609.668627	0.315779
610.017926	0.314243
610.367171	0.312820
610.716362	0.313339
611.065500	0.313699
611.414585	0.312335
611.763616	0.313059
612.112594	0.313575
612.461518	0.312875
612.810389	0.310662
613.159207	0.312551
613.507971	0.314995
613.856682	0.310229
614.205340	0.311879
614.553945	0.308522
614.902496	0.312700
615.250994	0.310792
615.599439	0.311400
615.947830	0.311104
616.296169	0.311630
616.644454	0.311237
616.992686	0.311485
617.340864	0.309370
617.688990	0.312850
618.037063	0.309323
618.385082	0.311409
618.733048	0.308154
619.080961	0.310151
619.428821	0.309758
619.776628	0.309621
620.124382	0.311437
620.472083	0.311668
620.819731	0.310940
621.167326	0.315066
621.514868	0.314746
621.862357	0.319100
622.209793	0.318585
622.557176	0.320584
622.904506	0.321995
623.251783	0.324374
623.599007	0.326453
623.946179	0.326164
624.293297	0.328048
624.640363	0.331971
624.987376	0.332597
625.334336	0.334667
625.681243	0.337110
626.028097	0.338149
626.374899	0.338945
626.721647	0.338812
627.068343	0.342235
627.414987	0.343652
627.761577	0.345547
628.108115	0.343739
628.454600	0.348629
628.801032	0.346672
629.147412	0.348460
629.493739	0.348792
629.840014	0.352076
630.186236	0.349137
630.532405	0.354743
630.878521	0.352136
631.224585	0.354600
631.570597	0.357842
631.916556	0.356661
632.262462	0.356670
632.608316	0.358855
632.954117	0.359850
633.299866	0.360394
633.645562	0.360625
633.991206	0.365648
634.336797	0.367970
634.682336	0.370608
635.027823	0.371807
635.373257	0.372307
635.718639	0.376331
636.063968	0.375286
636.409245	0.381355
636.754470	0.381381
637.099642	0.384033
637.444762	0.387390
637.789829	0.386467
638.134845	0.389719
638.479808	0.390944
638.824719	0.390795
639.169577	0.394739
639.514383	0.393618
639.859137	0.398124
640.203839	0.397567
640.548489	0.398123
640.893086	0.399688
641.237632	0.401321
641.582125	0.399675
641.926566	0.401176
642.270955	0.401454
642.615292	0.401746
642.959576	0.400371
643.303809	0.401228
643.647990	0.400241
643.992118	0.400655
644.336195	0.405166
644.680219	0.403640
645.024192	0.403880
645.368112	0.397572
645.711981	0.396557
646.055797	0.392220
646.399562	0.394384
646.743274	0.386327
647.086935	0.383545
647.430544	0.384037
647.774101	0.383023
648.117606	0.382300
648.461059	0.382658
648.804460	0.384864
649.147810	0.390719
649.491108	0.392099
649.834354	0.393727
650.177548	0.399396
650.520690	0.404365
650.863781	0.405641
651.206820	0.405032
651.549807	0.410153
651.892742	0.413941
652.235626	0.413443
652.578458	0.414040
652.921238	0.420297
653.263967	0.418098
653.606644	0.421953
653.949269	0.421234
654.291843	0.425855
654.634365	0.422773
654.976836	0.425852
655.319255	0.425947
655.661622	0.427674
656.003938	0.427935
656.346203	0.430584
656.688416	0.428143
657.030577	0.431370
657.372687	0.433633
657.714746	0.434497
658.056753	0.431467
658.398708	0.435486
658.740612	0.436580
659.082465	0.432247
659.424266	0.432811
659.766016	0.432428
660.107715	0.435321
660.449362	0.434383
660.790958	0.434443
661.132503	0.434950
661.473996	0.433143
661.815438	0.433866
662.156829	0.433864
662.498168	0.434526
662.839456	0.435823
663.180693	0.434237
663.521879	0.433586
663.863013	0.434996
664.204097	0.433011
664.545129	0.430407
664.886110	0.430567
665.227040	0.427381
665.567918	0.430336
665.908746	0.428644
666.249522	0.428413
666.590248	0.429271
666.930922	0.427374
667.271545	0.426152
667.612118	0.426261
667.952639	0.428078
668.293109	0.426629
668.633528	0.429394
668.973896	0.429363
669.314213	0.429527
669.654480	0.431289
669.994695	0.431439
670.334859	0.432638
670.674973	0.432385
671.015035	0.432764
671.355047	0.433062
671.695008	0.433737
672.034918	0.435684
672.374777	0.435330
672.714585	0.436076
673.054342	0.436175
673.394049	0.436217
673.733705	0.434242
674.073310	0.435169
674.412864	0.437964
674.752368	0.438878
675.091820	0.438497
675.431223	0.443137
675.770574	0.443140
676.109875	0.446243
676.449125	0.446502
676.788324	0.448273
677.127473	0.454103
677.466571	0.453123
677.805619	0.455484
678.144616	0.456210
678.483562	0.457600
678.822458	0.460314
679.161303	0.461344
679.500098	0.461963
679.838842	0.463214
680.177535	0.463699
680.516179	0.461773
680.854771	0.460699
681.193314	0.453550
681.531805	0.445459
681.870247	0.433657
682.208638	0.426600
682.546978	0.425834
682.885268	0.427078
683.223508	0.433679
683.561697	0.436724
683.899836	0.439735
684.237925	0.443039
684.575963	0.445351
684.913951	0.448555
685.251889	0.444570
685.589776	0.446871
685.927614	0.449024
686.265401	0.443135
686.603137	0.444813
686.940824	0.438715
687.278460	0.437194
687.616046	0.436242
687.953582	0.431238
688.291068	0.431914
688.628504	0.428081
688.965889	0.430486
689.303224	0.434353
689.640510	0.438297
689.977745	0.444496
690.314930	0.452342
690.652065	0.456557
690.989150	0.464320
691.326185	0.471136
691.663170	0.475416
692.000105	0.482333
692.336990	0.489621
692.673825	0.491963
693.010610	0.498886
693.347345	0.504525
693.684030	0.505966
694.020665	0.510989
694.357251	0.519070
694.693786	0.518937
695.030272	0.523033
695.366707	0.526229
695.703093	0.530089
696.039429	0.527995
696.375716	0.529357
696.711952	0.532366
697.048139	0.534648
697.384276	0.536191
697.720363	0.534672
698.056400	0.533904
698.392388	0.539735
698.728326	0.542556
699.064214	0.545398
699.400053	0.545592
699.735842	0.549445
700.071581	0.552208
700.407270	0.554494
700.742910	0.557656
701.078501	0.564786
701.414042	0.564720
701.749533	0.567287
702.084974	0.576500
702.420366	0.568169
702.755709	0.576246
703.091002	0.584135
703.426246	0.577406
703.761440	0.583145
704.096584	0.588087
704.431679	0.585103
704.766725	0.586968
705.101721	0.588772
705.436668	0.584992
705.771565	0.591896
706.106413	0.588868
706.441212	0.583364
706.775961	0.582464
707.110661	0.586254
707.445311	0.582115
707.779913	0.579144
708.114465	0.577064
708.448967	0.574275
708.783421	0.566522
709.117825	0.560909
709.452180	0.561125
709.786485	0.554641
710.120742	0.544975
710.454949	0.546595
710.789107	0.538889
711.123216	0.529536
711.457275	0.530908
711.791286	0.522297
712.125247	0.521704
712.459159	0.531644
712.793023	0.524888
713.126837	0.528485
713.460602	0.529374
713.794318	0.539203
714.127985	0.537072
714.461602	0.546988
714.795171	0.550819
715.128691	0.558508
715.462162	0.565875
715.795584	0.571657
716.128957	0.574700
716.462281	0.581191
716.795556	0.584210
717.128782	0.589491
717.461960	0.599981
717.795088	0.597172
718.128167	0.603819
718.461198	0.612344
718.794180	0.612871
719.127113	0.615935
719.459997	0.619695
719.792833	0.625535
720.125619	0.627039
720.458357	0.632931
720.791046	0.632179
721.123686	0.636407
721.456278	0.643357
721.788821	0.639983
722.121315	0.644309
722.453761	0.649097
722.786158	0.646379
723.118506	0.642788
723.450805	0.651156
723.783056	0.646379
724.115259	0.643861
724.447412	0.643807
724.779518	0.644870
725.111574	0.643855
725.443582	0.640049
725.775542	0.641452
726.107453	0.633191
726.439315	0.633392
726.771129	0.632002
727.102895	0.625659
727.434612	0.618577
727.766281	0.616514
728.097901	0.615172
728.429473	0.614548
728.760996	0.613665
729.092471	0.613353
729.423897	0.617536
729.755276	0.616355
730.086606	0.616355
730.417887	0.611231
730.749120	0.602172
731.080305	0.593411
731.411442	0.588528
731.742530	0.593166
732.073570	0.593288
732.404562	0.585853
732.735506	0.586920
733.066401	0.591684
733.397249	0.600682
733.728048	0.612267
734.058798	0.624774
734.389501	0.634432
734.720156	0.644855
735.050762	0.652650
735.381320	0.653752
735.711831	0.662783
736.042293	0.667553
736.372707	0.664386
736.703073	0.668689
737.033391	0.671072
737.363661	0.668176
737.693883	0.662893
738.024056	0.661820
738.354182	0.661786
738.684260	0.652191
739.014290	0.647524
739.344272	0.647875
739.674207	0.641711
740.004093	0.640780
740.333931	0.641234
740.663722	0.641832
740.993464	0.642007
741.323159	0.645764
741.652806	0.650772
741.982405	0.655727
742.311956	0.660338
742.641460	0.662696
742.970915	0.666044
743.300323	0.673703
743.629683	0.679771
743.958996	0.682266
744.288260	0.686596
744.617477	0.693696
744.946647	0.693466
745.275768	0.699687
745.604842	0.699383
745.933869	0.709740
746.262847	0.709457
746.591778	0.703233
746.920662	0.709640
747.249498	0.715819
747.578286	0.706976
747.907027	0.703276
748.235720	0.703348
748.564365	0.698812
748.892963	0.699117
749.221514	0.701823
749.550017	0.706909
749.878473	0.706179
750.206881	0.712550
750.535242	0.714532
750.863555	0.714539
751.191821	0.715208
751.520039	0.718035
751.848210	0.723256
752.176334	0.715331
752.504411	0.714942
752.832440	0.722391
753.160421	0.727532
753.488356	0.724706
753.816243	0.722390
754.144082	0.730443
754.471875	0.734560
754.799620	0.729993
755.127318	0.730860
755.454969	0.731449
755.782572	0.730750
756.110129	0.735561
756.437638	0.737837
756.765100	0.733802
757.092515	0.732901
757.419882	0.731061
757.747203	0.736986
758.074477	0.735980
758.401703	0.733586
758.728882	0.728307
759.056014	0.727554
759.383099	0.725987
759.710138	0.727493
760.037129	0.724499
760.364073	0.717195
760.690970	0.719711
761.017820	0.725564
761.344623	0.721990
761.671379	0.712074
761.998088	0.700552
762.324751	0.677328
762.651366	0.635320
762.977935	0.568654
763.304456	0.516560
763.630931	0.506729
763.957359	0.545639
764.283740	0.591096
764.610074	0.618059
764.936362	0.649795
765.262602	0.675616
765.588796	0.697467
765.914943	0.714746
766.241044	0.733022
766.567097	0.739917
766.893104	0.750084
767.219064	0.756846
767.544978	0.762353
767.870845	0.776828
768.196665	0.779640
768.522438	0.777031
768.848165	0.779306
769.173846	0.787772
769.499479	0.793514
769.825066	0.795386
770.150607	0.801987
770.476101	0.796385
770.801548	0.798105
771.126949	0.808596
771.452303	0.814139
771.777611	0.811585
772.102872	0.811564
772.428087	0.816069
772.753256	0.819664
773.078378	0.821721
773.403453	0.831509
773.728482	0.835525
774.053465	0.828782
774.378401	0.832546
774.703291	0.840268
775.028135	0.840483
775.352932	0.842769
775.677683	0.844391
776.002388	0.845418
776.327046	0.843363
776.651658	0.847649
776.976224	0.851526
777.300743	0.851885
777.625216	0.854223
777.949643	0.855838
778.274024	0.855552
778.598359	0.857971
778.922647	0.855048
779.246889	0.856521
779.571086	0.860604
779.895236	0.864087
780.219339	0.859899
780.543397	0.856380
780.867409	0.856216
781.191374	0.856982
781.515294	0.860028
781.839167	0.857478
782.162995	0.860925
782.486776	0.857839
782.810511	0.858143
783.134201	0.862640
783.457844	0.860185
783.781441	0.863221
784.104993	0.868742
784.428498	0.868816
784.751958	0.865551
785.075372	0.867409
785.398739	0.871041
785.722061	0.868470
786.045337	0.862293
786.368568	0.867901
786.691752	0.870562
787.014891	0.856240
787.337983	0.848090
787.661030	0.839142
787.984031	0.821585
788.306987	0.808851
788.629897	0.811429
788.952760	0.815724
789.275579	0.819614
789.598351	0.834170
789.921078	0.849336
790.243759	0.850772
790.566395	0.855230
790.888984	0.861155
791.211529	0.867102
791.534027	0.871434
791.856480	0.872896
792.178888	0.877716
792.501249	0.880195
792.823566	0.881277
793.145836	0.881390
793.468062	0.883847
793.790241	0.883756
794.112375	0.881613
794.434464	0.877308
794.756507	0.876134
795.078505	0.877191
795.400457	0.871830
795.722364	0.859112
796.044226	0.851981
796.366042	0.849890
796.687812	0.854190
797.009538	0.850234
797.331218	0.852781
797.652852	0.858359
797.974442	0.863688
798.295986	0.862867
798.617484	0.866406
798.938938	0.869399
799.260346	0.874620
799.581709	0.877693
799.903026	0.878883
800.224299	0.878890
800.545526	0.883897
800.866708	0.887897
801.187845	0.890693
801.508936	0.890644
801.829983	0.889656
802.150984	0.890873
802.471940	0.897443
802.792851	0.896827
803.113717	0.897009
803.434538	0.894223
803.755314	0.898035
804.076045	0.899713
804.396731	0.899773
804.717372	0.899094
805.037967	0.900989
805.358518	0.898807
805.679024	0.895206
805.999485	0.896072
806.319901	0.895314
806.640272	0.895996
806.960598	0.895858
807.280879	0.893752
807.601115	0.889888
807.921306	0.894180
808.241453	0.895171
808.561554	0.893354
808.881611	0.892781
809.201623	0.895482
809.521590	0.896100
809.841513	0.896885
810.161390	0.895211
810.481223	0.896619
810.801011	0.899583
811.120755	0.901778
811.440453	0.900451
811.760107	0.899314
812.079716	0.898151
812.399281	0.902475
812.718801	0.904477
813.038276	0.906929
813.357707	0.905535
813.677093	0.902780
813.996434	0.905878
814.315731	0.907981
814.634983	0.908810
814.954191	0.908631
815.273354	0.903911
815.592473	0.900243
815.911547	0.900585
816.230577	0.898552
816.549562	0.894168
816.868502	0.896320
817.187399	0.892357
817.506250	0.887101
817.825058	0.889165
818.143821	0.885598
818.462539	0.879822
818.781213	0.872311
819.099843	0.861354
819.418429	0.845357
819.736970	0.828050
820.055466	0.807825
820.373919	0.782446
820.692327	0.748741
821.010691	0.713472
821.329011	0.635182
821.647286	0.518771
821.965517	0.404758
822.283704	0.361452
822.601847	0.362494
822.919945	0.397940
823.237999	0.432134
823.556010	0.480029
823.873976	0.535777
824.191897	0.587200
824.509775	0.630209
824.827609	0.675310
825.145398	0.698458
825.463144	0.701408
825.780845	0.683907
826.098502	0.664716
826.416116	0.619291
826.733685	0.574615
827.051210	0.566123
827.368692	0.580380
827.686129	0.618419
828.003522	0.671644
828.320872	0.720668
828.638177	0.764007
828.955439	0.795970
829.272656	0.819429
829.589830	0.837061
829.906960	0.853394
830.224046	0.866181
830.541088	0.875750
830.858086	0.880127
831.175041	0.886526
831.491952	0.885953
831.808819	0.882008
832.125642	0.875771
832.442421	0.860576
832.759157	0.838159
833.075849	0.790717
833.392497	0.726827
833.709101	0.686967
834.025662	0.696409
834.342179	0.727510
834.658653	0.766826
834.975083	0.803143
835.291469	0.828812
835.607811	0.852242
835.924110	0.869198
836.240366	0.885666
836.556578	0.900620
836.872746	0.907377
837.188871	0.913018
837.504952	0.918786
837.820990	0.921743
838.136984	0.926154
838.452935	0.929378
838.768842	0.930491
839.084706	0.923599
839.400526	0.897915
839.716303	0.857083
840.032037	0.834094
840.347727	0.838113
840.663373	0.856276
840.978977	0.878018
841.294537	0.901394
841.610054	0.916487
841.925527	0.924058
842.240957	0.932178
842.556344	0.939567
842.871687	0.946138
843.186987	0.949057
843.502244	0.950413
843.817458	0.951599
844.132629	0.954293
844.447756	0.959870
844.762840	0.959814
845.077881	0.958973
845.392879	0.959744
845.707833	0.962486
846.022745	0.964186
846.337613	0.963225
846.652438	0.966017
846.967221	0.964027
847.281960	0.964464
847.596656	0.967332
847.911309	0.964218
848.225919	0.967625
848.540485	0.968111
848.855009	0.968563
849.169490	0.967561
849.483928	0.968149
849.798323	0.968560
850.112675	0.969385
850.426984	0.968684
850.741251	0.969695
851.055474	0.969136
851.369654	0.967956
851.683792	0.968987
851.997887	0.969521
852.311938	0.970018
852.625947	0.970035
852.939914	0.968526
853.253837	0.969202
853.567718	0.968732
853.881555	0.969747
854.195350	0.969410
854.509103	0.968521
854.822812	0.970154
855.136479	0.969428
855.450103	0.968106
855.763685	0.966892
856.077224	0.967655
856.390720	0.970846
856.704173	0.969843
857.017584	0.968333
857.330953	0.967319
857.644278	0.967368
857.957561	0.968420
858.270802	0.966955
858.584000	0.967782
858.897155	0.966945
859.210268	0.967384
859.523339	0.968043
859.836367	0.969992
860.149352	0.969516
860.462295	0.967057
860.775195	0.969062
861.088054	0.969556
861.400869	0.968932
861.713642	0.969760
862.026373	0.970377
862.339062	0.970610
862.651708	0.967420
862.964312	0.967939
863.276873	0.968656
863.589392	0.968165
863.901869	0.965413
864.214303	0.964263
864.526696	0.962585
864.839045	0.962734
865.151353	0.961105
865.463619	0.961936
865.775842	0.962794
866.088023	0.961391
866.400162	0.961540
866.712258	0.962412
867.024313	0.961578
867.336325	0.962330
867.648296	0.962963
867.960224	0.960524
868.272110	0.961928
868.583954	0.962710
868.895755	0.964095
869.207515	0.962038
869.519233	0.957794
869.830909	0.961171
870.142542	0.961947
870.454134	0.961312
870.765684	0.960014
871.077191	0.957350
871.388657	0.958743
871.700081	0.956880
872.011463	0.957602
872.322803	0.956365
872.634101	0.955751
872.945357	0.953777
873.256571	0.952687
873.567744	0.952699
873.878874	0.953063
874.189963	0.950693
874.501010	0.950518
874.812015	0.948771
875.122979	0.951078
875.433900	0.951908
875.744780	0.953373
876.055618	0.949823
876.366415	0.949544
876.677169	0.949298
876.987882	0.949152
877.298554	0.949996
877.609183	0.946789
877.919771	0.943597
878.230317	0.941495
878.540822	0.938699
878.851285	0.934179
879.161707	0.925984
879.472087	0.914018
879.782425	0.896091
880.092722	0.862301
880.402977	0.808897
880.713191	0.746678
881.023363	0.687388
881.333494	0.652493
881.643583	0.624607
881.953631	0.625388
882.263637	0.653055
882.573602	0.692096
882.883526	0.719373
883.193408	0.743493
883.503248	0.766840
883.813048	0.794847
884.122806	0.823483
884.432522	0.848114
884.742197	0.867520
885.051831	0.879213
885.361424	0.888815
885.670975	0.901252
885.980485	0.911727
886.289954	0.916915
886.599382	0.923138
886.908768	0.927396
887.218113	0.933263
887.527417	0.938158
887.836680	0.940975
888.145901	0.942523
888.455082	0.945619
888.764221	0.949325
889.073319	0.951825
889.382376	0.951541
889.691392	0.951295
890.000366	0.951747
890.309300	0.952963
890.618193	0.952454
890.927044	0.950636
891.235855	0.950896
891.544625	0.950308
891.853353	0.950449
892.162041	0.948214
892.470687	0.942338
892.779293	0.936481
893.087858	0.932802
893.396381	0.925221
893.704864	0.911618
894.013306	0.886748
894.321707	0.860317
894.630068	0.844714
894.938387	0.840443
895.246665	0.840550
895.554903	0.853959
895.863100	0.867322
896.171256	0.884249
896.479371	0.904317
896.787446	0.916700
897.095480	0.923636
897.403473	0.926996
897.711425	0.931020
898.019336	0.937845
898.327207	0.941966
898.635038	0.944625
898.942827	0.943951
899.250576	0.947764
899.558284	0.951599
899.865952	0.953440
900.173579	0.954217
900.481165	0.954713
900.788711	0.958490
901.096216	0.959495
901.403681	0.959824
901.711105	0.962453
902.018489	0.962439
902.325832	0.962466
902.633135	0.960405
902.940397	0.954466
903.247619	0.941909
903.554800	0.915853
903.861941	0.875365
904.169041	0.839321
904.476101	0.821888
904.783121	0.822014
905.090100	0.839458
905.397039	0.860444
905.703938	0.883956
906.010796	0.903885
906.317614	0.921230
906.624391	0.932473
906.931129	0.942262
907.237826	0.949429
907.544483	0.957747
907.851099	0.962013
908.157675	0.966483
908.464211	0.969347
908.770707	0.971043
909.077163	0.973654
909.383578	0.973555
909.689954	0.974596
909.996289	0.975670
910.302584	0.977827
910.608839	0.978871
910.915054	0.976701
911.221229	0.977269
911.527363	0.976869
911.833458	0.976898
912.139513	0.975461
912.445527	0.974374
912.751502	0.972448
913.057436	0.971401
913.363331	0.969330
913.669186	0.964011
913.975000	0.960382
914.280775	0.954048
914.586510	0.945777
914.892205	0.934213
915.197859	0.912090
915.503475	0.882400
915.809050	0.862709
916.114585	0.856969
916.420081	0.854297
916.725536	0.851129
917.030952	0.859893
917.336328	0.874014
917.641665	0.888830
917.946961	0.904195
918.252218	0.917094
918.557435	0.924651
918.862612	0.934866
919.167750	0.939947
919.472848	0.946297
919.777906	0.950425
920.082925	0.956994
920.387904	0.960696
920.692843	0.961578
920.997743	0.963379
921.302603	0.966488
921.607423	0.967405
921.912204	0.971493
922.216946	0.970872
922.521647	0.972665
922.826310	0.974234
923.130932	0.975318
923.435516	0.977536
923.740059	0.979595
924.044564	0.977573
924.349028	0.979809
924.653454	0.981728
924.957840	0.985124
925.262186	0.984196
925.566493	0.983165
925.870761	0.984438
926.174989	0.986523
926.479178	0.987319
926.783328	0.987446
927.087438	0.987076
927.391509	0.987759
927.695541	0.989100
927.999533	0.989238
928.303486	0.989148
928.607400	0.989880
928.911275	0.988307
929.215110	0.989490
929.518906	0.991038
929.822663	0.989359
930.126381	0.991539
930.430060	0.989889
930.733699	0.988464
931.037299	0.988607
931.340861	0.990789
931.644383	0.989531
931.947866	0.989585
932.251309	0.989435
932.554714	0.989510
932.858080	0.990568
933.161407	0.988584
933.464694	0.989983
933.767943	0.989031
934.071153	0.990475
934.374323	0.992404
934.677455	0.991112
934.980548	0.991851
935.283602	0.990608
935.586617	0.991311
935.889593	0.989527
936.192530	0.990071
936.495428	0.990623
936.798287	0.989526
937.101108	0.990114
937.403890	0.988718
937.706632	0.989545
938.009336	0.986247
938.312002	0.985685
938.614628	0.983489
938.917216	0.983118
939.219765	0.980376
939.522275	0.982371
939.824747	0.983488
940.127179	0.982666
940.429573	0.982991
940.731929	0.983386
941.034246	0.984097
941.336524	0.984915
941.638763	0.985178
941.940964	0.986273
942.243126	0.986613
942.545250	0.987327
942.847335	0.987205
943.149381	0.987503
943.451389	0.987921
943.753359	0.987877
944.055290	0.989721
944.357182	0.989432
944.659036	0.987589
944.960851	0.989130
945.262628	0.988311
945.564367	0.989889
945.866067	0.990202
946.167729	0.989695
946.469352	0.989592
946.770937	0.988462
947.072484	0.990952
947.373992	0.991316
947.675462	0.989543
947.976893	0.990260
948.278286	0.990266
948.579641	0.991534
948.880958	0.991067
949.182236	0.990106
949.483476	0.990773
949.784678	0.989990
950.085841	0.991050
950.386967	0.991088
950.688054	0.989980
950.989103	0.990068
951.290114	0.989495
951.591087	0.989509
951.892021	0.989476
952.192917	0.989512
952.493776	0.987069
952.794596	0.987000
953.095378	0.987101
953.396122	0.987851
953.696828	0.987159
953.997496	0.989980
954.298126	0.990387
954.598718	0.989884
954.899272	0.989913
955.199788	0.988800
955.500266	0.991555
955.800706	0.992373
956.101108	0.992995
956.401472	0.993980
956.701798	0.993957
957.002087	0.992285
957.302337	0.993576
957.602550	0.994321
957.902724	0.995075
958.202861	0.995089
958.502960	0.995823
958.803022	0.994159
959.103045	0.994479
959.403031	0.996082
959.702979	0.995130
960.002889	0.996068
960.302762	0.994537
960.602596	0.995917
960.902393	0.993995
961.202153	0.997010
961.501875	0.997062
961.801559	0.995810
962.101205	0.995761
962.400814	0.996252
962.700385	0.995772
962.999918	0.996224
963.299414	0.996476
963.598873	0.995161
963.898293	0.996444
964.197677	0.995632
964.497022	0.997046
964.796331	0.996780
965.095601	0.997773
965.394835	0.997185
965.694030	0.996979
965.993189	0.997053
966.292309	0.995670
966.591393	0.997568
966.890439	0.997480
967.189447	0.997024
967.488419	0.997311
967.787353	0.996279
968.086249	0.997124
968.385108	0.996844
968.683930	0.996859
968.982714	0.997365
969.281462	0.997929
969.580172	0.995970
969.878844	0.997269
970.177480	0.997129
970.476078	0.996443
970.774639	0.996722
971.073162	0.997477
971.371649	0.996302
971.670098	0.995956
971.968510	0.997264
972.266885	0.995941
972.565223	0.995651
972.863524	0.995245
973.161788	0.997223
973.460014	0.996885
973.758204	0.995476
974.056356	0.995823
974.354471	0.994834
974.652550	0.996599
974.950591	0.996680
975.248595	0.996694
975.546563	0.996848
975.844493	0.998115
976.142386	0.996072
976.440243	0.997458
976.738062	0.995267
977.035845	0.997801
977.333590	0.997124
977.631299	0.997771
977.928971	0.996823
978.226606	0.995588
978.524204	0.996222
978.821765	0.997609
979.119290	0.996163
979.416777	0.996669
979.714228	0.997488
980.011642	0.996174
980.309020	0.997164
980.606360	0.997627
980.903664	0.997972
981.200931	0.996376
981.498162	0.995231
981.795356	0.994025
982.092513	0.994816
982.389633	0.995303
982.686717	0.991216
982.983764	0.990863
983.280775	0.990417
983.577749	0.989788
983.874686	0.990838
984.171587	0.992258
984.468451	0.993358
984.765279	0.994761
985.062070	0.994102
985.358824	0.994804
985.655543	0.994994
985.952224	0.995900
986.248869	0.996305
986.545478	0.996718
986.842050	0.999914
987.138586	0.995946
987.435086	0.997552
987.731549	0.998894
988.027975	0.997203
988.324366	0.997993
988.620719	0.997480
988.917037	0.995442
989.213318	0.997522
989.509563	0.997921
989.805772	1.000288
990.101944	0.998553
990.398080	0.996652
990.694180	0.998252
990.990244	0.997273
991.286271	0.997717
991.582262	0.999048
991.878217	0.996608
992.174136	0.998912
992.470019	0.998742
992.765865	0.997821
993.061676	0.998886
993.357450	0.998246
993.653188	0.997153
993.948890	0.997820
994.244556	0.998256
994.540186	0.996701
994.835780	0.996272
995.131337	0.996628
995.426859	0.997024
995.722345	0.996967
996.017795	0.996306
996.313208	0.996231
996.608586	0.994769
996.903928	0.996604
997.199234	0.996193
997.494504	0.997034
997.789738	0.995497
998.084936	0.996402
998.380099	0.997433
998.675225	0.996763
998.970316	0.999454
999.265371	0.998767
999.560390	0.998000
999.855373	0.998908
1000.150320	0.998667
1000.445232	0.998488
1000.740108	0.998391
1001.034948	0.997902
1001.329752	0.999339
1001.624521	0.997343
1001.919254	0.997282
1002.213951	0.998544
1002.508613	0.998084
1002.803239	0.999115
1003.097829	0.999665
1003.392384	0.999031
1003.686903	0.998136
1003.981386	0.997811
1004.275834	1.000534
1004.570246	0.997925
1004.864623	0.999074
1005.158964	0.999405
1005.453270	0.998814
1005.747540	0.997822
1006.041775	0.998234
1006.335974	0.998939
1006.630138	0.998196
1006.924266	1.000284
1007.218359	0.999838
1007.512416	0.998080
1007.806438	0.999151
1008.100425	0.999327
1008.394376	0.998530
1008.688292	0.999424
1008.982172	1.000929
1009.276017	0.999000
1009.569827	0.998229
1009.863602	0.998985
1010.157341	0.999683
1010.451045	1.000289
1010.744714	0.998840
1011.038347	0.998333
1011.331945	0.999632
1011.625508	0.997451
1011.919036	1.000019
1012.212528	0.998129
1012.505986	0.998037
1012.799408	0.999577
1013.092795	0.999383
1013.386147	0.999518
1013.679464	0.999262
1013.972745	0.998104
1014.265992	0.997668
1014.559204	0.998602
1014.852380	0.998974
1015.145521	0.999774
1015.438628	0.999969
1015.731699	0.998983
1016.024736	0.998190
1016.317737	0.998426
1016.610703	0.998526
1016.903635	0.999180
1017.196531	0.999218
1017.489393	0.999674
1017.782219	0.998943
1018.075011	0.998934
1018.367768	0.999405
1018.660490	1.000307
1018.953177	1.000307
1019.245829	1.000307
