Dividing Wavelength (nm)	Counts (n)	Blue Motor Position (mm): 0.000000	Red Motor Position (mm): 33.500000	
326.493990	0.999808
326.888308	0.999808
327.282561	0.999808
327.676750	0.999968
328.070874	0.998425
328.464933	1.001641
328.858929	0.999717
329.252859	0.999207
329.646726	0.998620
330.040528	0.999876
330.434265	0.998909
330.827938	1.000071
331.221547	1.000018
331.615091	0.999999
332.008571	0.999745
332.401986	0.999848
332.795338	0.999958
333.188625	0.998225
333.581847	0.998607
333.975006	0.999362
334.368100	0.999896
334.761129	0.999054
335.154095	0.999379
335.546996	0.998388
335.939833	0.994194
336.332606	0.995136
336.725315	0.996552
337.117960	0.997306
337.510540	0.994953
337.903056	0.996768
338.295508	0.994921
338.687896	0.996465
339.080220	0.995818
339.472480	0.995113
339.864676	0.994983
340.256807	0.995432
340.648875	0.997483
341.040879	0.996402
341.432818	0.995479
341.824694	0.995828
342.216506	0.997521
342.608253	0.997045
342.999937	0.995319
343.391557	0.995686
343.783113	0.995575
344.174605	0.996502
344.566033	0.996636
344.957397	0.994383
345.348697	0.994994
345.739934	0.995856
346.131106	0.995863
346.522215	0.996192
346.913260	0.995405
347.304241	0.996286
347.695159	0.994890
348.086012	0.993363
348.476802	0.995624
348.867528	0.995656
349.258191	0.995136
349.648789	0.996531
350.039324	0.995341
350.429796	0.997431
350.820203	0.996118
351.210548	0.996284
351.600828	0.995355
351.991045	0.996168
352.381198	0.995511
352.771288	0.995672
353.161314	0.995999
353.551276	0.996221
353.941175	0.996319
354.331010	0.995737
354.720782	0.996925
355.110490	0.995271
355.500135	0.997190
355.889717	0.995713
356.279235	0.995960
356.668689	0.995625
357.058080	0.995275
357.447408	0.996685
357.836672	0.996318
358.225873	0.995610
358.615010	0.996438
359.004084	0.996793
359.393095	0.996182
359.782043	0.995907
360.170927	0.996633
360.559748	0.996758
360.948505	0.995307
361.337199	0.995701
361.725830	0.996358
362.114398	0.995876
362.502903	0.997297
362.891344	0.996773
363.279722	0.994583
363.668037	0.996722
364.056289	0.996008
364.444478	0.997523
364.832603	0.995943
365.220665	0.996244
365.608665	0.995581
365.996601	0.996552
366.384474	0.996761
366.772284	0.995824
367.160031	0.993958
367.547715	0.995480
367.935336	0.995415
368.322893	0.996699
368.710388	0.994308
369.097820	0.995882
369.485189	0.996095
369.872495	0.994949
370.259738	0.994409
370.646918	0.996384
371.034035	0.996941
371.421090	0.996775
371.808081	0.995004
372.195010	0.996208
372.581875	0.997159
372.968678	0.996680
373.355418	0.996639
373.742096	0.995617
374.128710	0.997902
374.515262	0.995311
374.901751	0.998030
375.288177	0.996882
375.674540	0.997086
376.060841	0.996720
376.447079	0.997250
376.833254	0.996197
377.219367	0.996839
377.605417	0.996760
377.991404	0.997218
378.377329	0.996015
378.763191	0.996342
379.148991	0.997264
379.534727	0.997098
379.920402	0.997417
380.306013	0.997798
380.691563	0.997083
381.077049	0.997070
381.462474	0.996914
381.847835	0.996843
382.233134	0.997374
382.618371	0.997185
383.003545	0.996852
383.388657	0.996958
383.773706	0.998092
384.158693	0.998143
384.543618	0.998841
384.928480	0.997859
385.313280	0.997123
385.698017	0.998190
386.082692	0.997603
386.467305	0.997977
386.851856	0.997582
387.236344	0.997125
387.620770	0.996847
388.005133	0.998262
388.389435	0.997947
388.773674	0.997969
389.157851	0.998545
389.541965	0.998045
389.926018	0.998375
390.310008	0.999235
390.693936	0.997327
391.077802	0.997969
391.461606	0.996801
391.845348	0.998486
392.229027	0.999487
392.612645	0.998681
392.996200	0.999586
393.379694	0.998289
393.763125	0.999152
394.146494	0.998980
394.529801	0.998328
394.913047	0.998330
395.296230	0.998520
395.679351	0.998243
396.062410	0.998317
396.445408	0.998044
396.828343	0.998700
397.211217	0.998739
397.594028	0.998753
397.976778	0.997911
398.359466	0.998774
398.742092	0.998105
399.124656	0.997931
399.507158	0.998817
399.889598	0.999106
400.271977	0.999388
400.654294	0.998768
401.036549	0.999115
401.418742	0.999510
401.800874	0.998045
402.182944	0.998482
402.564952	0.998102
402.946898	0.999214
403.328783	0.999201
403.710606	0.998793
404.092367	0.998989
404.474067	0.998163
404.855705	0.998233
405.237282	0.998821
405.618797	0.998875
406.000250	0.998646
406.381642	0.999182
406.762972	0.998734
407.144240	0.999725
407.525447	0.999098
407.906593	0.999589
408.287677	0.999547
408.668700	0.999298
409.049661	0.997911
409.430560	0.998981
409.811399	0.999358
410.192176	0.999272
410.572891	0.999104
410.953545	0.998668
411.334138	0.998821
411.714669	0.998950
412.095139	0.998269
412.475547	0.999336
412.855894	0.999948
413.236180	0.999366
413.616405	0.999474
413.996568	0.998567
414.376670	0.998314
414.756711	0.998189
415.136691	0.999695
415.516609	0.998958
415.896466	0.998628
416.276262	0.997669
416.655997	0.999156
417.035670	0.998484
417.415283	0.999282
417.794834	0.999048
418.174324	0.998794
418.553753	1.000157
418.933121	0.998945
419.312428	0.999121
419.691674	0.999736
420.070859	0.999636
420.449983	0.999476
420.829045	0.999249
421.208047	1.000531
421.586988	1.001176
421.965867	0.998867
422.344686	1.000086
422.723444	0.999440
423.102141	0.999914
423.480777	0.999575
423.859352	0.998873
424.237866	0.999569
424.616319	0.999580
424.994712	0.999673
425.373044	1.000344
425.751314	1.000138
426.129524	0.999159
426.507673	0.999780
426.885762	1.000607
427.263789	0.999576
427.641756	0.999897
428.019662	1.000482
428.397508	0.999362
428.775292	0.999419
429.153016	0.999064
429.530679	0.999908
429.908282	0.999562
430.285824	0.999387
430.663305	0.998942
431.040726	0.999839
431.418086	1.000614
431.795385	0.999927
432.172624	0.999777
432.549802	1.000132
432.926920	1.000526
433.303977	0.998457
433.680974	1.000029
434.057910	0.999476
434.434786	0.999786
434.811601	0.998855
435.188355	0.998626
435.565050	0.998883
435.941683	0.999729
436.318257	0.999871
436.694770	0.999822
437.071222	1.000754
437.447614	1.000099
437.823946	0.999434
438.200218	0.999311
438.576429	0.999438
438.952580	1.000050
439.328670	0.998696
439.704700	1.000423
440.080670	0.999885
440.456580	1.000000
440.832429	0.999853
441.208218	1.000403
441.583947	0.999443
441.959616	1.000081
442.335224	0.999539
442.710773	1.000453
443.086261	0.998583
443.461689	0.999530
443.837057	1.000154
444.212365	1.000588
444.587612	0.999419
444.962800	0.998863
445.337927	0.999222
445.712995	1.000268
446.088002	1.000335
446.462949	0.999485
446.837837	0.999685
447.212664	1.000129
447.587431	0.999996
447.962139	1.000266
448.336786	1.000513
448.711374	1.000380
449.085901	0.999299
449.460369	1.000062
449.834776	0.999841
450.209124	1.000134
450.583412	0.999934
450.957640	0.999629
451.331808	0.999332
451.705917	1.000239
452.079965	0.999751
452.453954	1.000274
452.827883	0.999250
453.201752	1.000248
453.575562	1.000259
453.949311	1.000395
454.323001	0.999799
454.696632	0.999203
455.070202	0.999598
455.443713	0.999859
455.817164	1.000244
456.190556	1.000264
456.563888	0.999281
456.937160	0.999646
457.310373	0.999722
457.683526	0.999541
458.056619	0.999691
458.429653	1.000025
458.802628	0.998926
459.175542	0.998738
459.548398	1.000338
459.921194	1.000350
460.293930	1.000272
460.666607	0.999551
461.039224	0.998869
461.411782	1.000294
461.784280	0.999625
462.156719	1.000879
462.529099	0.999668
462.901419	1.000553
463.273680	1.000624
463.645882	0.999947
464.018024	1.000554
464.390106	1.000090
464.762130	1.001034
465.134094	0.999816
465.505999	1.001148
465.877845	1.000562
466.249631	1.001113
466.621358	1.000425
466.993026	1.000494
467.364634	1.000312
467.736184	1.000398
468.107674	0.999892
468.479105	0.999489
468.850477	1.000354
469.221790	1.000340
469.593043	0.999775
469.964238	1.001193
470.335373	0.999912
470.706449	0.999505
471.077467	1.000360
471.448425	1.000381
471.819324	1.000897
472.190164	0.999750
472.560945	1.000074
472.931667	1.000272
473.302330	0.999011
473.672934	1.000536
474.043479	0.999534
474.413965	0.999669
474.784393	1.000192
475.154761	0.999775
475.525070	0.999009
475.895321	1.000678
476.265513	0.999515
476.635645	0.999307
477.005719	1.000078
477.375734	0.999539
477.745691	0.999776
478.115588	1.000059
478.485427	0.999728
478.855207	1.000364
479.224928	1.000496
479.594591	1.000110
479.964194	0.999939
480.333739	0.999873
480.703226	1.000044
481.072653	1.000713
481.442022	1.001089
481.811333	0.999509
482.180584	1.000129
482.549777	0.999856
482.918912	0.999575
483.287988	1.000179
483.657005	0.999527
484.025964	1.000596
484.394864	1.000065
484.763706	0.999567
485.132489	0.999579
485.501213	0.999532
485.869879	0.999540
486.238487	1.000206
486.607036	0.999804
486.975527	0.998605
487.343959	0.998558
487.712333	0.998384
488.080648	0.998435
488.448905	0.998303
488.817104	0.997954
489.185244	0.997696
489.553326	0.997928
489.921350	0.997404
490.289315	0.997152
490.657222	0.997209
491.025070	0.996336
491.392861	0.996274
491.760593	0.995753
492.128267	0.995232
492.495883	0.995536
492.863440	0.994944
493.230939	0.994652
493.598380	0.993988
493.965763	0.992852
494.333088	0.993456
494.700354	0.992019
495.067563	0.991889
495.434713	0.990571
495.801805	0.990890
496.168839	0.989661
496.535815	0.988143
496.902733	0.987983
497.269593	0.987265
497.636395	0.987038
498.003139	0.985513
498.369825	0.985019
498.736453	0.983660
499.103023	0.982135
499.469535	0.981298
499.835989	0.980806
500.202385	0.978764
500.568723	0.978611
500.935003	0.977137
501.301226	0.975244
501.667390	0.974496
502.033497	0.972990
502.399546	0.972031
502.765537	0.969134
503.131470	0.968377
503.497345	0.966121
503.863163	0.965605
504.228923	0.963696
504.594625	0.961556
504.960269	0.960342
505.325856	0.957856
505.691385	0.956092
506.056856	0.954294
506.422270	0.951373
506.787625	0.950228
507.152924	0.947195
507.518164	0.945296
507.883347	0.942553
508.248472	0.939460
508.613540	0.937895
508.978550	0.934873
509.343503	0.932360
509.708398	0.930129
510.073236	0.927594
510.438016	0.924789
510.802738	0.921126
511.167403	0.917916
511.532010	0.914251
511.896561	0.911436
512.261053	0.908609
512.625488	0.904664
512.989866	0.901521
513.354186	0.897809
513.718449	0.894337
514.082655	0.890205
514.446803	0.887265
514.810894	0.883345
515.174927	0.878997
515.538904	0.875523
515.902822	0.870212
516.266684	0.867996
516.630488	0.863436
516.994235	0.858536
517.357925	0.853391
517.721558	0.849741
518.085133	0.844323
518.448651	0.841675
518.812112	0.836633
519.175516	0.831643
519.538863	0.826875
519.902152	0.822292
520.265385	0.815778
520.628560	0.812890
520.991678	0.807813
521.354739	0.802885
521.717743	0.798334
522.080690	0.793580
522.443580	0.786283
522.806413	0.781473
523.169189	0.776501
523.531908	0.771005
523.894569	0.767351
524.257174	0.761434
524.619722	0.754842
524.982213	0.751484
525.344647	0.744713
525.707025	0.739853
526.069345	0.733352
526.431608	0.727845
526.793815	0.721875
527.155964	0.717614
527.518057	0.712830
527.880093	0.707648
528.242072	0.701268
528.603995	0.695807
528.965860	0.691792
529.327669	0.684976
529.689421	0.679941
530.051117	0.675440
530.412755	0.667318
530.774337	0.664540
531.135862	0.657581
531.497331	0.652759
531.858743	0.647856
532.220098	0.641288
532.581396	0.636908
532.942638	0.631863
533.303824	0.626739
533.664953	0.620482
534.026025	0.616103
534.387040	0.608859
534.747999	0.604037
535.108902	0.597460
535.469748	0.595208
535.830537	0.588426
536.191270	0.583403
536.551947	0.577277
536.912567	0.571620
537.273131	0.568984
537.633638	0.562703
537.994089	0.557228
538.354483	0.553178
538.714821	0.546260
539.075103	0.540767
539.435328	0.535801
539.795497	0.533855
540.155609	0.525582
540.515665	0.520205
540.875665	0.518442
541.235609	0.511898
541.595496	0.507668
541.955328	0.499421
542.315102	0.497143
542.674821	0.493257
543.034483	0.488309
543.394090	0.483348
543.753640	0.479584
544.113134	0.471658
544.472571	0.469714
544.831953	0.462372
545.191278	0.460583
545.550548	0.456346
545.909761	0.448685
546.268918	0.445570
546.628019	0.439987
546.987064	0.437195
547.346053	0.435266
547.704986	0.428820
548.063863	0.424992
548.422684	0.421495
548.781449	0.418764
549.140158	0.413195
549.498811	0.411187
549.857408	0.410726
550.215949	0.401481
550.574434	0.400519
550.932864	0.394746
551.291237	0.390920
551.649555	0.387489
552.007817	0.384103
552.366022	0.381745
552.724173	0.378760
553.082267	0.376174
553.440305	0.368881
553.798288	0.370506
554.156215	0.363593
554.514086	0.361087
554.871902	0.361455
555.229661	0.357556
555.587365	0.355117
555.945014	0.354670
556.302606	0.348485
556.660143	0.348450
557.017625	0.341738
557.375050	0.341523
557.732421	0.335909
558.089735	0.335303
558.446994	0.332943
558.804197	0.329751
559.161345	0.326950
559.518437	0.328312
559.875474	0.323257
560.232455	0.320628
560.589381	0.319789
560.946251	0.316849
561.303065	0.313230
561.659825	0.312058
562.016528	0.311354
562.373177	0.312200
562.729770	0.307282
563.086307	0.307721
563.442789	0.304008
563.799216	0.304648
564.155587	0.301659
564.511904	0.300595
564.868164	0.299327
565.224370	0.297857
565.580520	0.297590
565.936615	0.296182
566.292654	0.297110
566.648638	0.293071
567.004567	0.292709
567.360441	0.291692
567.716260	0.292215
568.072023	0.288930
568.427732	0.288091
568.783385	0.289530
569.138982	0.286322
569.494525	0.285071
569.850013	0.286678
570.205445	0.283950
570.560823	0.285536
570.916145	0.286328
571.271412	0.283771
571.626625	0.283895
571.981782	0.283372
572.336884	0.283428
572.691931	0.282412
573.046923	0.282684
573.401860	0.283153
573.756743	0.283774
574.111570	0.281987
574.466342	0.281722
574.821059	0.280369
575.175722	0.282382
575.530330	0.281624
575.884882	0.280916
576.239380	0.282553
576.593823	0.282658
576.948211	0.281371
577.302544	0.283909
577.656823	0.282643
578.011047	0.282704
578.365216	0.282508
578.719330	0.284177
579.073389	0.283757
579.427394	0.284858
579.781344	0.284840
580.135239	0.285870
580.489080	0.285263
580.842866	0.287749
581.196597	0.287302
581.550273	0.285873
581.903895	0.286568
582.257463	0.284544
582.610975	0.287274
582.964434	0.286626
583.317837	0.288932
583.671186	0.288928
584.024481	0.289029
584.377721	0.291032
584.730906	0.291585
585.084037	0.290465
585.437113	0.291967
585.790135	0.291460
586.143103	0.294081
586.496016	0.295018
586.848874	0.292564
587.201679	0.292721
587.554428	0.296158
587.907124	0.294542
588.259765	0.295186
588.612352	0.295663
588.964884	0.299196
589.317362	0.298736
589.669786	0.298265
590.022155	0.296805
590.374470	0.295991
590.726731	0.298200
591.078937	0.302911
591.431090	0.298960
591.783188	0.303253
592.135232	0.303499
592.487222	0.303102
592.839157	0.300919
593.191038	0.303122
593.542866	0.305185
593.894639	0.308912
594.246358	0.306766
594.598022	0.306201
594.949633	0.309882
595.301190	0.310053
595.652692	0.309322
596.004141	0.305642
596.355535	0.313810
596.706876	0.313996
597.058162	0.316284
597.409395	0.313535
597.760573	0.310946
598.111698	0.314147
598.462768	0.314876
598.813785	0.315699
599.164748	0.317217
599.515657	0.317708
599.866511	0.320836
600.217312	0.315855
600.568060	0.321549
600.918753	0.317676
601.269392	0.318111
601.619978	0.321704
601.970510	0.319299
602.320988	0.319591
602.671412	0.317063
603.021783	0.319463
603.372100	0.321080
603.722363	0.320467
604.072572	0.321420
604.422728	0.320898
604.772830	0.323143
605.122878	0.322647
605.472872	0.323150
605.822813	0.321742
606.172701	0.324430
606.522534	0.321167
606.872314	0.321528
607.222041	0.322471
607.571714	0.320694
607.921333	0.321832
608.270899	0.322140
608.620411	0.318483
608.969870	0.322167
609.319276	0.322299
609.668627	0.322250
610.017926	0.320511
610.367171	0.319382
610.716362	0.319910
611.065500	0.319945
611.414585	0.318541
611.763616	0.319446
612.112594	0.319901
612.461518	0.318932
612.810389	0.316990
613.159207	0.319183
613.507971	0.321114
613.856682	0.316684
614.205340	0.318226
614.553945	0.314973
614.902496	0.319156
615.250994	0.316882
615.599439	0.317700
615.947830	0.316899
616.296169	0.317925
616.644454	0.317344
616.992686	0.317701
617.340864	0.315445
617.688990	0.319077
618.037063	0.315798
618.385082	0.317720
618.733048	0.314526
619.080961	0.316758
619.428821	0.316244
619.776628	0.315740
620.124382	0.317908
620.472083	0.318247
620.819731	0.317216
621.167326	0.321225
621.514868	0.321020
621.862357	0.325130
622.209793	0.325037
622.557176	0.326715
622.904506	0.328200
623.251783	0.330484
623.599007	0.333122
623.946179	0.332255
624.293297	0.334138
624.640363	0.337553
624.987376	0.338539
625.334336	0.340943
625.681243	0.343238
626.028097	0.344072
626.374899	0.344918
626.721647	0.344958
627.068343	0.348775
627.414987	0.349363
627.761577	0.351689
628.108115	0.349755
628.454600	0.355100
628.801032	0.352161
629.147412	0.354269
629.493739	0.354389
629.840014	0.357766
630.186236	0.355308
630.532405	0.360599
630.878521	0.358391
631.224585	0.360403
631.570597	0.363896
631.916556	0.362491
632.262462	0.362571
632.608316	0.364050
632.954117	0.365649
633.299866	0.366452
633.645562	0.366993
633.991206	0.370986
634.336797	0.373771
634.682336	0.376174
635.027823	0.378182
635.373257	0.378119
635.718639	0.381966
636.063968	0.381002
636.409245	0.386898
636.754470	0.387392
637.099642	0.389870
637.444762	0.393271
637.789829	0.391704
638.134845	0.394804
638.479808	0.396711
638.824719	0.396065
639.169577	0.400686
639.514383	0.399286
639.859137	0.403752
640.203839	0.403349
640.548489	0.404031
640.893086	0.404882
641.237632	0.406867
641.582125	0.404907
641.926566	0.406740
642.270955	0.407251
642.615292	0.407087
642.959576	0.406264
643.303809	0.406534
643.647990	0.406566
643.992118	0.406909
644.336195	0.410737
644.680219	0.409016
645.024192	0.409358
645.368112	0.403501
645.711981	0.402266
646.055797	0.397131
646.399562	0.399875
646.743274	0.391637
647.086935	0.389455
647.430544	0.389271
647.774101	0.388808
648.117606	0.387847
648.461059	0.388716
648.804460	0.390858
649.147810	0.396184
649.491108	0.397873
649.834354	0.399591
650.177548	0.405127
650.520690	0.410411
650.863781	0.411472
651.206820	0.410408
651.549807	0.415639
651.892742	0.419341
652.235626	0.418518
652.578458	0.419393
652.921238	0.425158
653.263967	0.423373
653.606644	0.427843
653.949269	0.427052
654.291843	0.431224
654.634365	0.427874
654.976836	0.430961
655.319255	0.431287
655.661622	0.433039
656.003938	0.432584
656.346203	0.435754
656.688416	0.433874
657.030577	0.437284
657.372687	0.438924
657.714746	0.439679
658.056753	0.436867
658.398708	0.440169
658.740612	0.441700
659.082465	0.437488
659.424266	0.438758
659.766016	0.437499
660.107715	0.440571
660.449362	0.439265
660.790958	0.439558
661.132503	0.440734
661.473996	0.438450
661.815438	0.438941
662.156829	0.439724
662.498168	0.440214
662.839456	0.441558
663.180693	0.439273
663.521879	0.438556
663.863013	0.440186
664.204097	0.438548
664.545129	0.435671
664.886110	0.436052
665.227040	0.433576
665.567918	0.435529
665.908746	0.434229
666.249522	0.432907
666.590248	0.434336
666.930922	0.432863
667.271545	0.431333
667.612118	0.431605
667.952639	0.433540
668.293109	0.431698
668.633528	0.434894
668.973896	0.434495
669.314213	0.435209
669.654480	0.436590
669.994695	0.437203
670.334859	0.437543
670.674973	0.438135
671.015035	0.438406
671.355047	0.438007
671.695008	0.439043
672.034918	0.441341
672.374777	0.440450
672.714585	0.441697
673.054342	0.441505
673.394049	0.441505
673.733705	0.439163
674.073310	0.440457
674.412864	0.443982
674.752368	0.444037
675.091820	0.444444
675.431223	0.448931
675.770574	0.447921
676.109875	0.451051
676.449125	0.450995
676.788324	0.453548
677.127473	0.459152
677.466571	0.458652
677.805619	0.460551
678.144616	0.461233
678.483562	0.462704
678.822458	0.465491
679.161303	0.466969
679.500098	0.466889
679.838842	0.468342
680.177535	0.468407
680.516179	0.467002
680.854771	0.466162
681.193314	0.459690
681.531805	0.451172
681.870247	0.439596
682.208638	0.431962
682.546978	0.431103
682.885268	0.433033
683.223508	0.438978
683.561697	0.442223
683.899836	0.445166
684.237925	0.448350
684.575963	0.451196
684.913951	0.454269
685.251889	0.450567
685.589776	0.451880
685.927614	0.453803
686.265401	0.448512
686.603137	0.450139
686.940824	0.444109
687.278460	0.442404
687.616046	0.441827
687.953582	0.436275
688.291068	0.437671
688.628504	0.433689
688.965889	0.435675
689.303224	0.439942
689.640510	0.444034
689.977745	0.449796
690.314930	0.457735
690.652065	0.461967
690.989150	0.469848
691.326185	0.476053
691.663170	0.480258
692.000105	0.487802
692.336990	0.494865
692.673825	0.497276
693.010610	0.504044
693.347345	0.509702
693.684030	0.511342
694.020665	0.515399
694.357251	0.524112
694.693786	0.523985
695.030272	0.528283
695.366707	0.532327
695.703093	0.535013
696.039429	0.533197
696.375716	0.534646
696.711952	0.536945
697.048139	0.539120
697.384276	0.541084
697.720363	0.539117
698.056400	0.538508
698.392388	0.543921
698.728326	0.547389
699.064214	0.550228
699.400053	0.550614
699.735842	0.554005
700.071581	0.556529
700.407270	0.559671
700.742910	0.562050
701.078501	0.568758
701.414042	0.569083
701.749533	0.572004
702.084974	0.581047
702.420366	0.572994
702.755709	0.581309
703.091002	0.588688
703.426246	0.582076
703.761440	0.588304
704.096584	0.592809
704.431679	0.589774
704.766725	0.592084
705.101721	0.593615
705.436668	0.589455
705.771565	0.596398
706.106413	0.593118
706.441212	0.589270
706.775961	0.587327
707.110661	0.590103
707.445311	0.586383
707.779913	0.583599
708.114465	0.582048
708.448967	0.579046
708.783421	0.571344
709.117825	0.565837
709.452180	0.566048
709.786485	0.559932
710.120742	0.549315
710.454949	0.551428
710.789107	0.543936
711.123216	0.535559
711.457275	0.536676
711.791286	0.527098
712.125247	0.526909
712.459159	0.537537
712.793023	0.529889
713.126837	0.534280
713.460602	0.534345
713.794318	0.543997
714.127985	0.542525
714.461602	0.552534
714.795171	0.555441
715.128691	0.563045
715.462162	0.570734
715.795584	0.576380
716.128957	0.579123
716.462281	0.586020
716.795556	0.588789
717.128782	0.594159
717.461960	0.602949
717.795088	0.602750
718.128167	0.608007
718.461198	0.617222
718.794180	0.617027
719.127113	0.620717
719.459997	0.624832
719.792833	0.630002
720.125619	0.631583
720.458357	0.637446
720.791046	0.636211
721.123686	0.640396
721.456278	0.647057
721.788821	0.644659
722.121315	0.649077
722.453761	0.652685
722.786158	0.650481
723.118506	0.646653
723.450805	0.655639
723.783056	0.651707
724.115259	0.648077
724.447412	0.648241
724.779518	0.649082
725.111574	0.648524
725.443582	0.643921
725.775542	0.645916
726.107453	0.638804
726.439315	0.637890
726.771129	0.636724
727.102895	0.630422
727.434612	0.622421
727.766281	0.621069
728.097901	0.619839
728.429473	0.620761
728.760996	0.618671
729.092471	0.618169
729.423897	0.621965
729.755276	0.621729
730.086606	0.621573
730.417887	0.616082
730.749120	0.607074
731.080305	0.597569
731.411442	0.594676
731.742530	0.598998
732.073570	0.598077
732.404562	0.590412
732.735506	0.591729
733.066401	0.596350
733.397249	0.605825
733.728048	0.616727
734.058798	0.629427
734.389501	0.639683
734.720156	0.649248
735.050762	0.657935
735.381320	0.658172
735.711831	0.668170
736.042293	0.672085
736.372707	0.668296
736.703073	0.672382
737.033391	0.674911
737.363661	0.671665
737.693883	0.667239
738.024056	0.666568
738.354182	0.666393
738.684260	0.655582
739.014290	0.651671
739.344272	0.653161
739.674207	0.646675
740.004093	0.645655
740.333931	0.646645
740.663722	0.646144
740.993464	0.646938
741.323159	0.649760
741.652806	0.655831
741.982405	0.660543
742.311956	0.665009
742.641460	0.666982
742.970915	0.670590
743.300323	0.678374
743.629683	0.685110
743.958996	0.686723
744.288260	0.690624
744.617477	0.696282
744.946647	0.698432
745.275768	0.703608
745.604842	0.703103
745.933869	0.713505
746.262847	0.714413
746.591778	0.707043
746.920662	0.713301
747.249498	0.719766
747.578286	0.711308
747.907027	0.707365
748.235720	0.709307
748.564365	0.703186
748.892963	0.702443
749.221514	0.706159
749.550017	0.712129
749.878473	0.710718
750.206881	0.716503
750.535242	0.718462
750.863555	0.718254
751.191821	0.719642
751.520039	0.722410
751.848210	0.727141
752.176334	0.720043
752.504411	0.718892
752.832440	0.726162
753.160421	0.731426
753.488356	0.729514
753.816243	0.725842
754.144082	0.734470
754.471875	0.738422
754.799620	0.733573
755.127318	0.735468
755.454969	0.735041
755.782572	0.734360
756.110129	0.739081
756.437638	0.741793
756.765100	0.738516
757.092515	0.737104
757.419882	0.734781
757.747203	0.741657
758.074477	0.740369
758.401703	0.736985
758.728882	0.732386
759.056014	0.731512
759.383099	0.730354
759.710138	0.731871
760.037129	0.727441
760.364073	0.721917
760.690970	0.724123
761.017820	0.730607
761.344623	0.725419
761.671379	0.716791
761.998088	0.704566
762.324751	0.682517
762.651366	0.642154
762.977935	0.575018
763.304456	0.523890
763.630931	0.514040
763.957359	0.553182
764.283740	0.596785
764.610074	0.624409
764.936362	0.654583
765.262602	0.680995
765.588796	0.702580
765.914943	0.719204
766.241044	0.737467
766.567097	0.744445
766.893104	0.754158
767.219064	0.760144
767.544978	0.767091
767.870845	0.779306
768.196665	0.783903
768.522438	0.780987
768.848165	0.782617
769.173846	0.791973
769.499479	0.796906
769.825066	0.799186
770.150607	0.805386
770.476101	0.799990
770.801548	0.801598
771.126949	0.812195
771.452303	0.816828
771.777611	0.815250
772.102872	0.813827
772.428087	0.818751
772.753256	0.823456
773.078378	0.825815
773.403453	0.832964
773.728482	0.838001
774.053465	0.832061
774.378401	0.834763
774.703291	0.843891
775.028135	0.843102
775.352932	0.845399
775.677683	0.847458
776.002388	0.848461
776.327046	0.846762
776.651658	0.850475
776.976224	0.854330
777.300743	0.855129
777.625216	0.856095
777.949643	0.858666
778.274024	0.858322
778.598359	0.860110
778.922647	0.859156
779.246889	0.858905
779.571086	0.863179
779.895236	0.865215
780.219339	0.863760
780.543397	0.859411
780.867409	0.858123
781.191374	0.860558
781.515294	0.861485
781.839167	0.861390
782.162995	0.864750
782.486776	0.861101
782.810511	0.861524
783.134201	0.865013
783.457844	0.863708
783.781441	0.866552
784.104993	0.871732
784.428498	0.872224
784.751958	0.867817
785.075372	0.870626
785.398739	0.874485
785.722061	0.870681
786.045337	0.866120
786.368568	0.871336
786.691752	0.873980
787.014891	0.859029
787.337983	0.850271
787.661030	0.843096
787.984031	0.825912
788.306987	0.812676
788.629897	0.815834
788.952760	0.819265
789.275579	0.823001
789.598351	0.838172
789.921078	0.851870
790.243759	0.853374
790.566395	0.858327
790.888984	0.864549
791.211529	0.869739
791.534027	0.873772
791.856480	0.875186
792.178888	0.881423
792.501249	0.883478
792.823566	0.884528
793.145836	0.884349
793.468062	0.886257
793.790241	0.886935
794.112375	0.885224
794.434464	0.878842
794.756507	0.879233
795.078505	0.878709
795.400457	0.873758
795.722364	0.862268
796.044226	0.854622
796.366042	0.853490
796.687812	0.857072
797.009538	0.853217
797.331218	0.855479
797.652852	0.861058
797.974442	0.866658
798.295986	0.865737
798.617484	0.868789
798.938938	0.873031
799.260346	0.878588
799.581709	0.879917
799.903026	0.882537
800.224299	0.882280
800.545526	0.886675
800.866708	0.890221
801.187845	0.894071
801.508936	0.893609
801.829983	0.892178
802.150984	0.893784
802.471940	0.899240
802.792851	0.898569
803.113717	0.899516
803.434538	0.896992
803.755314	0.899535
804.076045	0.901444
804.396731	0.901039
804.717372	0.901288
805.037967	0.903583
805.358518	0.900638
805.679024	0.898212
805.999485	0.898242
806.319901	0.898668
806.640272	0.899881
806.960598	0.899270
807.280879	0.895450
807.601115	0.892996
807.921306	0.898285
808.241453	0.898280
808.561554	0.895801
808.881611	0.895082
809.201623	0.898209
809.521590	0.897257
809.841513	0.898392
810.161390	0.897136
810.481223	0.898740
810.801011	0.903495
811.120755	0.904538
811.440453	0.902896
811.760107	0.901855
812.079716	0.901839
812.399281	0.905730
812.718801	0.906655
813.038276	0.908736
813.357707	0.908059
813.677093	0.905160
813.996434	0.908249
814.315731	0.909677
814.634983	0.910799
814.954191	0.909839
815.273354	0.906275
815.592473	0.902051
815.911547	0.902537
816.230577	0.900803
816.549562	0.897377
816.868502	0.898943
817.187399	0.894284
817.506250	0.889644
817.825058	0.891806
818.143821	0.887834
818.462539	0.883053
818.781213	0.875617
819.099843	0.863992
819.418429	0.849477
819.736970	0.832743
820.055466	0.812899
820.373919	0.788536
820.692327	0.755337
821.010691	0.722478
821.329011	0.646640
821.647286	0.533202
821.965517	0.420394
822.283704	0.378234
822.601847	0.380296
822.919945	0.416025
823.237999	0.448360
823.556010	0.494067
823.873976	0.549393
824.191897	0.598250
824.509775	0.640547
824.827609	0.685301
825.145398	0.708203
825.463144	0.710037
825.780845	0.692936
826.098502	0.674528
826.416116	0.629850
826.733685	0.587110
827.051210	0.578548
827.368692	0.592605
827.686129	0.629562
828.003522	0.682114
828.320872	0.728326
828.638177	0.771301
828.955439	0.803747
829.272656	0.824392
829.589830	0.841882
829.906960	0.857083
830.224046	0.869699
830.541088	0.879252
830.858086	0.883406
831.175041	0.889017
831.491952	0.888863
831.808819	0.885824
832.125642	0.879251
832.442421	0.865683
832.759157	0.843886
833.075849	0.798812
833.392497	0.735409
833.709101	0.695176
834.025662	0.705043
834.342179	0.736084
834.658653	0.774482
834.975083	0.810034
835.291469	0.836139
835.607811	0.857489
835.924110	0.871753
836.240366	0.890199
836.556578	0.902953
836.872746	0.910063
837.188871	0.915935
837.504952	0.920618
837.820990	0.925813
838.136984	0.928031
838.452935	0.931257
838.768842	0.932750
839.084706	0.926086
839.400526	0.900922
839.716303	0.862087
840.032037	0.839772
840.347727	0.843535
840.663373	0.862265
840.978977	0.883219
841.294537	0.904284
841.610054	0.918806
841.925527	0.927673
842.240957	0.934062
842.556344	0.941926
842.871687	0.948178
843.186987	0.952137
843.502244	0.951252
843.817458	0.953418
844.132629	0.956107
844.447756	0.962233
844.762840	0.961261
845.077881	0.960222
845.392879	0.960631
845.707833	0.964259
846.022745	0.964855
846.337613	0.965500
846.652438	0.967105
846.967221	0.965609
847.281960	0.965683
847.596656	0.967974
847.911309	0.966712
848.225919	0.968981
848.540485	0.968952
848.855009	0.969759
849.169490	0.968817
849.483928	0.970460
849.798323	0.970115
850.112675	0.970846
850.426984	0.969760
850.741251	0.970194
851.055474	0.971364
851.369654	0.968511
851.683792	0.969634
851.997887	0.970796
852.311938	0.971652
852.625947	0.970607
852.939914	0.968807
853.253837	0.969978
853.567718	0.972026
853.881555	0.971404
854.195350	0.968865
854.509103	0.970287
854.822812	0.970689
855.136479	0.970232
855.450103	0.970869
855.763685	0.969450
856.077224	0.969436
856.390720	0.971600
856.704173	0.972366
857.017584	0.968335
857.330953	0.966885
857.644278	0.968269
857.957561	0.969396
858.270802	0.969051
858.584000	0.968571
858.897155	0.967342
859.210268	0.968767
859.523339	0.969006
859.836367	0.969929
860.149352	0.971814
860.462295	0.969589
860.775195	0.971246
861.088054	0.970535
861.400869	0.969858
861.713642	0.971819
862.026373	0.971654
862.339062	0.971714
862.651708	0.968657
862.964312	0.968381
863.276873	0.970268
863.589392	0.969334
863.901869	0.967721
864.214303	0.966611
864.526696	0.964286
864.839045	0.965345
865.151353	0.962497
865.463619	0.963720
865.775842	0.963633
866.088023	0.963724
866.400162	0.964353
866.712258	0.964241
867.024313	0.964622
867.336325	0.964444
867.648296	0.964117
867.960224	0.963061
868.272110	0.962658
868.583954	0.965007
868.895755	0.965530
869.207515	0.963660
869.519233	0.960469
869.830909	0.962866
870.142542	0.962454
870.454134	0.962706
870.765684	0.962420
871.077191	0.958791
871.388657	0.959474
871.700081	0.958511
872.011463	0.959426
872.322803	0.959444
872.634101	0.958247
872.945357	0.955712
873.256571	0.954819
873.567744	0.953584
873.878874	0.955377
874.189963	0.953926
874.501010	0.952926
874.812015	0.950969
875.122979	0.952100
875.433900	0.955416
875.744780	0.955308
876.055618	0.952795
876.366415	0.951707
876.677169	0.952724
876.987882	0.952485
877.298554	0.953100
877.609183	0.949310
877.919771	0.947892
878.230317	0.943254
878.540822	0.943296
878.851285	0.937078
879.161707	0.930096
879.472087	0.917604
879.782425	0.902336
880.092722	0.870245
880.402977	0.819123
880.713191	0.761745
881.023363	0.705001
881.333494	0.671848
881.643583	0.644045
881.953631	0.643509
882.263637	0.670844
882.573602	0.710367
882.883526	0.735254
883.193408	0.757258
883.503248	0.779353
883.813048	0.805079
884.122806	0.834258
884.432522	0.856802
884.742197	0.876074
885.051831	0.885664
885.361424	0.895877
885.670975	0.907889
885.980485	0.916906
886.289954	0.923527
886.599382	0.927366
886.908768	0.931511
887.218113	0.937352
887.527417	0.941156
887.836680	0.944481
888.145901	0.946110
888.455082	0.948321
888.764221	0.952057
889.073319	0.954236
889.382376	0.953893
889.691392	0.954686
890.000366	0.954551
890.309300	0.956365
890.618193	0.954882
890.927044	0.953487
891.235855	0.953719
891.544625	0.952780
891.853353	0.953758
892.162041	0.951885
892.470687	0.945632
892.779293	0.940926
893.087858	0.936836
893.396381	0.929289
893.704864	0.916395
894.013306	0.893379
894.321707	0.868543
894.630068	0.854978
894.938387	0.850522
895.246665	0.851336
895.554903	0.863509
895.863100	0.875693
896.171256	0.891429
896.479371	0.911148
896.787446	0.923342
897.095480	0.928562
897.403473	0.931073
897.711425	0.935979
898.019336	0.942804
898.327207	0.945057
898.635038	0.947613
898.942827	0.947667
899.250576	0.951636
899.558284	0.955068
899.865952	0.955779
900.173579	0.957220
900.481165	0.957698
900.788711	0.962164
901.096216	0.962838
901.403681	0.963098
901.711105	0.965583
902.018489	0.965557
902.325832	0.965405
902.633135	0.963896
902.940397	0.958550
903.247619	0.945790
903.554800	0.922008
903.861941	0.884144
904.169041	0.849804
904.476101	0.835480
904.783121	0.834779
905.090100	0.851191
905.397039	0.870935
905.703938	0.891282
906.010796	0.910428
906.317614	0.927117
906.624391	0.938744
906.931129	0.946894
907.237826	0.954192
907.544483	0.961536
907.851099	0.964810
908.157675	0.969169
908.464211	0.971299
908.770707	0.972517
909.077163	0.975337
909.383578	0.975279
909.689954	0.976301
909.996289	0.976372
910.302584	0.978634
910.608839	0.979712
910.915054	0.978740
911.221229	0.979250
911.527363	0.978221
911.833458	0.978685
912.139513	0.977848
912.445527	0.977348
912.751502	0.975118
913.057436	0.974259
913.363331	0.971070
913.669186	0.967961
913.975000	0.963185
914.280775	0.957881
914.586510	0.951797
914.892205	0.938732
915.197859	0.918477
915.503475	0.892735
915.809050	0.873613
916.114585	0.869294
916.420081	0.867652
916.725536	0.864270
917.030952	0.871986
917.336328	0.882778
917.641665	0.897883
917.946961	0.912539
918.252218	0.923793
918.557435	0.931447
918.862612	0.939489
919.167750	0.945771
919.472848	0.949563
919.777906	0.954851
920.082925	0.960956
920.387904	0.964434
920.692843	0.964957
920.997743	0.964851
921.302603	0.968769
921.607423	0.970781
921.912204	0.973751
922.216946	0.973582
922.521647	0.974188
922.826310	0.975726
923.130932	0.977632
923.435516	0.979855
923.740059	0.980547
924.044564	0.980097
924.349028	0.981407
924.653454	0.984111
924.957840	0.985674
925.262186	0.984696
925.566493	0.985124
925.870761	0.985589
926.174989	0.986800
926.479178	0.988933
926.783328	0.989431
927.087438	0.988524
927.391509	0.988540
927.695541	0.991151
927.999533	0.989336
928.303486	0.989355
928.607400	0.991275
928.911275	0.989905
929.215110	0.990712
929.518906	0.991091
929.822663	0.989487
930.126381	0.991036
930.430060	0.991844
930.733699	0.990699
931.037299	0.989182
931.340861	0.991833
931.644383	0.990629
931.947866	0.990289
932.251309	0.990641
932.554714	0.991479
932.858080	0.991158
933.161407	0.990884
933.464694	0.992509
933.767943	0.989253
934.071153	0.991477
934.374323	0.992072
934.677455	0.992253
934.980548	0.991874
935.283602	0.991355
935.586617	0.991828
935.889593	0.990979
936.192530	0.991616
936.495428	0.991056
936.798287	0.991410
937.101108	0.991561
937.403890	0.988300
937.706632	0.989217
938.009336	0.987485
938.312002	0.987383
938.614628	0.984532
938.917216	0.984832
939.219765	0.982766
939.522275	0.984013
939.824747	0.984867
940.127179	0.983301
940.429573	0.986002
940.731929	0.984791
941.034246	0.985096
941.336524	0.986589
941.638763	0.987328
941.940964	0.987236
942.243126	0.986858
942.545250	0.987964
942.847335	0.989625
943.149381	0.988331
943.451389	0.988579
943.753359	0.988341
944.055290	0.990581
944.357182	0.990417
944.659036	0.989336
944.960851	0.990174
945.262628	0.990251
945.564367	0.990789
945.866067	0.990118
946.167729	0.990344
946.469352	0.991386
946.770937	0.989136
947.072484	0.991806
947.373992	0.990612
947.675462	0.990326
947.976893	0.990025
948.278286	0.991442
948.579641	0.992253
948.880958	0.991222
949.182236	0.991867
949.483476	0.991700
949.784678	0.990000
950.085841	0.992071
950.386967	0.990708
950.688054	0.991401
950.989103	0.991858
951.290114	0.989751
951.591087	0.990250
951.892021	0.989895
952.192917	0.989009
952.493776	0.988539
952.794596	0.988385
953.095378	0.988534
953.396122	0.988161
953.696828	0.987991
953.997496	0.991019
954.298126	0.991033
954.598718	0.991096
954.899272	0.991120
955.199788	0.990522
955.500266	0.991830
955.800706	0.993977
956.101108	0.993604
956.401472	0.993358
956.701798	0.994433
957.002087	0.992996
957.302337	0.993893
957.602550	0.994162
957.902724	0.994250
958.202861	0.995333
958.502960	0.996020
958.803022	0.994401
959.103045	0.996705
959.403031	0.996134
959.702979	0.994904
960.002889	0.996080
960.302762	0.995119
960.602596	0.995798
960.902393	0.995965
961.202153	0.996380
961.501875	0.996345
961.801559	0.995721
962.101205	0.995026
962.400814	0.996218
962.700385	0.996549
962.999918	0.996180
963.299414	0.995578
963.598873	0.995295
963.898293	0.994921
964.197677	0.995149
964.497022	0.995039
964.796331	0.996981
965.095601	0.996215
965.394835	0.996532
965.694030	0.997012
965.993189	0.997043
966.292309	0.996690
966.591393	0.997054
966.890439	0.997151
967.189447	0.997093
967.488419	0.997446
967.787353	0.995781
968.086249	0.995368
968.385108	0.997438
968.683930	0.997011
968.982714	0.996755
969.281462	0.996904
969.580172	0.996943
969.878844	0.996908
970.177480	0.996263
970.476078	0.998023
970.774639	0.996320
971.073162	0.998155
971.371649	0.996219
971.670098	0.996252
971.968510	0.996595
972.266885	0.995479
972.565223	0.995988
972.863524	0.995715
973.161788	0.995208
973.460014	0.996929
973.758204	0.996230
974.056356	0.995886
974.354471	0.993727
974.652550	0.996514
974.950591	0.996032
975.248595	0.995365
975.546563	0.997192
975.844493	0.998504
976.142386	0.996024
976.440243	0.996607
976.738062	0.996757
977.035845	0.997364
977.333590	0.997703
977.631299	0.996733
977.928971	0.995335
978.226606	0.995912
978.524204	0.995653
978.821765	0.997126
979.119290	0.997537
979.416777	0.995144
979.714228	0.997468
980.011642	0.996579
980.309020	0.997642
980.606360	0.997760
980.903664	0.998694
981.200931	0.996808
981.498162	0.994709
981.795356	0.994661
982.092513	0.993777
982.389633	0.994336
982.686717	0.992097
982.983764	0.992250
983.280775	0.991875
983.577749	0.991170
983.874686	0.993182
984.171587	0.990546
984.468451	0.993939
984.765279	0.995549
985.062070	0.993991
985.358824	0.995614
985.655543	0.995858
985.952224	0.996437
986.248869	0.996963
986.545478	0.996164
986.842050	0.998707
987.138586	0.995985
987.435086	0.997864
987.731549	0.998392
988.027975	0.996232
988.324366	0.997259
988.620719	0.996616
988.917037	0.996488
989.213318	0.998847
989.509563	0.997697
989.805772	0.998772
990.101944	0.998316
990.398080	0.996892
990.694180	0.997386
990.990244	0.997356
991.286271	0.997789
991.582262	0.998288
991.878217	0.998195
992.174136	0.999450
992.470019	0.998487
992.765865	0.997646
993.061676	0.997987
993.357450	0.998536
993.653188	0.996697
993.948890	0.997166
994.244556	0.997746
994.540186	0.997348
994.835780	0.996981
995.131337	0.998631
995.426859	0.996266
995.722345	0.997726
996.017795	0.996456
996.313208	0.995088
996.608586	0.995362
996.903928	0.996221
997.199234	0.996663
997.494504	0.997004
997.789738	0.996347
998.084936	0.996507
998.380099	0.997461
998.675225	0.998049
998.970316	0.997976
999.265371	0.997413
999.560390	0.996821
999.855373	0.998080
1000.150320	0.997096
1000.445232	0.998790
1000.740108	0.997615
1001.034948	0.998407
1001.329752	0.997898
1001.624521	0.999611
1001.919254	0.998004
1002.213951	0.997736
1002.508613	0.998529
1002.803239	0.998900
1003.097829	0.999543
1003.392384	0.999071
1003.686903	0.997832
1003.981386	0.998102
1004.275834	0.998951
1004.570246	0.998528
1004.864623	0.999044
1005.158964	1.000155
1005.453270	0.997340
1005.747540	0.997472
1006.041775	0.998447
1006.335974	0.998698
1006.630138	0.999031
1006.924266	0.999410
1007.218359	0.999221
1007.512416	0.998587
1007.806438	0.999039
1008.100425	0.998918
1008.394376	0.998511
1008.688292	0.998689
1008.982172	0.999805
1009.276017	0.999420
1009.569827	0.998217
1009.863602	0.998310
1010.157341	0.998588
1010.451045	0.998715
1010.744714	0.997312
1011.038347	0.999424
1011.331945	0.998110
1011.625508	0.997138
1011.919036	0.999329
1012.212528	0.998749
1012.505986	0.997623
1012.799408	0.998050
1013.092795	0.999154
1013.386147	0.999281
1013.679464	0.998885
1013.972745	0.998134
1014.265992	0.997915
1014.559204	0.997601
1014.852380	0.998300
1015.145521	0.998308
1015.438628	0.998520
1015.731699	0.997801
1016.024736	0.998529
1016.317737	0.998031
1016.610703	0.998205
1016.903635	0.998796
1017.196531	0.998578
1017.489393	1.000045
1017.782219	0.999010
1018.075011	0.999100
1018.367768	0.997536
1018.660490	0.999039
1018.953177	0.999039
1019.245829	0.999039
