Dividing Wavelength (nm)	Counts (n)	Blue Motor Position (mm): 0.000000	Red Motor Position (mm): 16.800000	
326.493990	1.002321
326.888308	1.002321
327.282561	1.002321
327.676750	1.001086
328.070874	1.000336
328.464933	1.000922
328.858929	0.999614
329.252859	0.999734
329.646726	0.998954
330.040528	1.001639
330.434265	1.001278
330.827938	1.002767
331.221547	1.001185
331.615091	1.000564
332.008571	1.000170
332.401986	1.000454
332.795338	1.001587
333.188625	0.999597
333.581847	1.000656
333.975006	1.000128
334.368100	0.999889
334.761129	1.001231
335.154095	1.000289
335.546996	0.998766
335.939833	0.994227
336.332606	0.994052
336.725315	0.994807
337.117960	0.996624
337.510540	0.993856
337.903056	0.994523
338.295508	0.993331
338.687896	0.994282
339.080220	0.995268
339.472480	0.994273
339.864676	0.995103
340.256807	0.995179
340.648875	0.996179
341.040879	0.994862
341.432818	0.994398
341.824694	0.994619
342.216506	0.995266
342.608253	0.993797
342.999937	0.993362
343.391557	0.994748
343.783113	0.993763
344.174605	0.994969
344.566033	0.995093
344.957397	0.993815
345.348697	0.994577
345.739934	0.995160
346.131106	0.994468
346.522215	0.993855
346.913260	0.994151
347.304241	0.993950
347.695159	0.994691
348.086012	0.992200
348.476802	0.994988
348.867528	0.994255
349.258191	0.994484
349.648789	0.995572
350.039324	0.994772
350.429796	0.994616
350.820203	0.994793
351.210548	0.994515
351.600828	0.995586
351.991045	0.993484
352.381198	0.994206
352.771288	0.993763
353.161314	0.994294
353.551276	0.995222
353.941175	0.994388
354.331010	0.993504
354.720782	0.994781
355.110490	0.995091
355.500135	0.994726
355.889717	0.994953
356.279235	0.994431
356.668689	0.994606
357.058080	0.993814
357.447408	0.995457
357.836672	0.994618
358.225873	0.995471
358.615010	0.995308
359.004084	0.995776
359.393095	0.993899
359.782043	0.994325
360.170927	0.994791
360.559748	0.995013
360.948505	0.993327
361.337199	0.993958
361.725830	0.995503
362.114398	0.994591
362.502903	0.995118
362.891344	0.995139
363.279722	0.994465
363.668037	0.995200
364.056289	0.995073
364.444478	0.995156
364.832603	0.994517
365.220665	0.993922
365.608665	0.992843
365.996601	0.994260
366.384474	0.993870
366.772284	0.995228
367.160031	0.992366
367.547715	0.993227
367.935336	0.994423
368.322893	0.993472
368.710388	0.994161
369.097820	0.994880
369.485189	0.993915
369.872495	0.993650
370.259738	0.991762
370.646918	0.994331
371.034035	0.994860
371.421090	0.993415
371.808081	0.993156
372.195010	0.994751
372.581875	0.994451
372.968678	0.993929
373.355418	0.994277
373.742096	0.993771
374.128710	0.995783
374.515262	0.994165
374.901751	0.995392
375.288177	0.994833
375.674540	0.994618
376.060841	0.994409
376.447079	0.994551
376.833254	0.994136
377.219367	0.993786
377.605417	0.994564
377.991404	0.994612
378.377329	0.993891
378.763191	0.994630
379.148991	0.995154
379.534727	0.995162
379.920402	0.994739
380.306013	0.995363
380.691563	0.995215
381.077049	0.993940
381.462474	0.994635
381.847835	0.995121
382.233134	0.995071
382.618371	0.996339
383.003545	0.993714
383.388657	0.994485
383.773706	0.995214
384.158693	0.994380
384.543618	0.993968
384.928480	0.996195
385.313280	0.995299
385.698017	0.996072
386.082692	0.996055
386.467305	0.995504
386.851856	0.995131
387.236344	0.994204
387.620770	0.994965
388.005133	0.994710
388.389435	0.995869
388.773674	0.994785
389.157851	0.994306
389.541965	0.994419
389.926018	0.994527
390.310008	0.995616
390.693936	0.994775
391.077802	0.994695
391.461606	0.994116
391.845348	0.995059
392.229027	0.995388
392.612645	0.994866
392.996200	0.996173
393.379694	0.994510
393.763125	0.995750
394.146494	0.995377
394.529801	0.994579
394.913047	0.995125
395.296230	0.994862
395.679351	0.994784
396.062410	0.994111
396.445408	0.994533
396.828343	0.993709
397.211217	0.992499
397.594028	0.994040
397.976778	0.992854
398.359466	0.993182
398.742092	0.991775
399.124656	0.991596
399.507158	0.990622
399.889598	0.989174
400.271977	0.989004
400.654294	0.987198
401.036549	0.986021
401.418742	0.984855
401.800874	0.980177
402.182944	0.979105
402.564952	0.976033
402.946898	0.974898
403.328783	0.970935
403.710606	0.968270
404.092367	0.962727
404.474067	0.959996
404.855705	0.955733
405.237282	0.952196
405.618797	0.945765
406.000250	0.940236
406.381642	0.935082
406.762972	0.929453
407.144240	0.925134
407.525447	0.919105
407.906593	0.912179
408.287677	0.905776
408.668700	0.899970
409.049661	0.891124
409.430560	0.884271
409.811399	0.878793
410.192176	0.866187
410.572891	0.861462
410.953545	0.848922
411.334138	0.845580
411.714669	0.836191
412.095139	0.831994
412.475547	0.818358
412.855894	0.809721
413.236180	0.801679
413.616405	0.795358
413.996568	0.782563
414.376670	0.776698
414.756711	0.770459
415.136691	0.760266
415.516609	0.747340
415.896466	0.737146
416.276262	0.725121
416.655997	0.718690
417.035670	0.698479
417.415283	0.684625
417.794834	0.679228
418.174324	0.674971
418.553753	0.672431
418.933121	0.651789
419.312428	0.639235
419.691674	0.634570
420.070859	0.618684
420.449983	0.617193
420.829045	0.601459
421.208047	0.601509
421.586988	0.588813
421.965867	0.581074
422.344686	0.564997
422.723444	0.569663
423.102141	0.576884
423.480777	0.549075
423.859352	0.560564
424.237866	0.535127
424.616319	0.530708
424.994712	0.518619
425.373044	0.522548
425.751314	0.506956
426.129524	0.517988
426.507673	0.498655
426.885762	0.489578
427.263789	0.490362
427.641756	0.496806
428.019662	0.484477
428.397508	0.480681
428.775292	0.481536
429.153016	0.471504
429.530679	0.475313
429.908282	0.467097
430.285824	0.474878
430.663305	0.452078
431.040726	0.470626
431.418086	0.469545
431.795385	0.460028
432.172624	0.457214
432.549802	0.457367
432.926920	0.455154
433.303977	0.453627
433.680974	0.449814
434.057910	0.447604
434.434786	0.446562
434.811601	0.448906
435.188355	0.430494
435.565050	0.439431
435.941683	0.440097
436.318257	0.425207
436.694770	0.425038
437.071222	0.422936
437.447614	0.427208
437.823946	0.433342
438.200218	0.422885
438.576429	0.432143
438.952580	0.425191
439.328670	0.421682
439.704700	0.428095
440.080670	0.428906
440.456580	0.409869
440.832429	0.418337
441.208218	0.429022
441.583947	0.417785
441.959616	0.417709
442.335224	0.422505
442.710773	0.413504
443.086261	0.411159
443.461689	0.425198
443.837057	0.415122
444.212365	0.405102
444.587612	0.411398
444.962800	0.401828
445.337927	0.403041
445.712995	0.429882
446.088002	0.391298
446.462949	0.402236
446.837837	0.406526
447.212664	0.395424
447.587431	0.386995
447.962139	0.357923
448.336786	0.317026
448.711374	0.327522
449.085901	0.371179
449.460369	0.375659
449.834776	0.379112
450.209124	0.358459
450.583412	0.350959
450.957640	0.344527
451.331808	0.355019
451.705917	0.378419
452.079965	0.383189
452.453954	0.371276
452.827883	0.378306
453.201752	0.373613
453.575562	0.384439
453.949311	0.372804
454.323001	0.379095
454.696632	0.374914
455.070202	0.367431
455.443713	0.359574
455.817164	0.354477
456.190556	0.350204
456.563888	0.347089
456.937160	0.344507
457.310373	0.361887
457.683526	0.360529
458.056619	0.366313
458.429653	0.366926
458.802628	0.369973
459.175542	0.364175
459.548398	0.347420
459.921194	0.339484
460.293930	0.339491
460.666607	0.317479
461.039224	0.305547
461.411782	0.301543
461.784280	0.300508
462.156719	0.304808
462.529099	0.308884
462.901419	0.325149
463.273680	0.329455
463.645882	0.329366
464.018024	0.335098
464.390106	0.327663
464.762130	0.312823
465.134094	0.295594
465.505999	0.265062
465.877845	0.235473
466.249631	0.222741
466.621358	0.230103
466.993026	0.243761
467.364634	0.250159
467.736184	0.258805
468.107674	0.267527
468.479105	0.266826
468.850477	0.273563
469.221790	0.280482
469.593043	0.290571
469.964238	0.295326
470.335373	0.294916
470.706449	0.292983
471.077467	0.293554
471.448425	0.255893
471.819324	0.231657
472.190164	0.230712
472.560945	0.259824
472.931667	0.281715
473.302330	0.285695
473.672934	0.297755
474.043479	0.285776
474.413965	0.287810
474.784393	0.291099
475.154761	0.286148
475.525070	0.282860
475.895321	0.289051
476.265513	0.283434
476.635645	0.278503
477.005719	0.278464
477.375734	0.275151
477.745691	0.268421
478.115588	0.264967
478.485427	0.258653
478.855207	0.245301
479.224928	0.228141
479.594591	0.216379
479.964194	0.219732
480.333739	0.220680
480.703226	0.222457
481.072653	0.220858
481.442022	0.216605
481.811333	0.212771
482.180584	0.216333
482.549777	0.221628
482.918912	0.224976
483.287988	0.224493
483.657005	0.224219
484.025964	0.230841
484.394864	0.227938
484.763706	0.228823
485.132489	0.233548
485.501213	0.234106
485.869879	0.232586
486.238487	0.235977
486.607036	0.233672
486.975527	0.238426
487.343959	0.234037
487.712333	0.233134
488.080648	0.234571
488.448905	0.233729
488.817104	0.234973
489.185244	0.229320
489.553326	0.226292
489.921350	0.216450
490.289315	0.198941
490.657222	0.193795
491.025070	0.195222
491.392861	0.196968
491.760593	0.202876
492.128267	0.208472
492.495883	0.214087
492.863440	0.220075
493.230939	0.226380
493.598380	0.227994
493.965763	0.230101
494.333088	0.232401
494.700354	0.233814
495.067563	0.232878
495.434713	0.236111
495.801805	0.233925
496.168839	0.235583
496.535815	0.236590
496.902733	0.236609
497.269593	0.238293
497.636395	0.236130
498.003139	0.236297
498.369825	0.239594
498.736453	0.235871
499.103023	0.237384
499.469535	0.236631
499.835989	0.236923
500.202385	0.237800
500.568723	0.240982
500.935003	0.236559
501.301226	0.240699
501.667390	0.234881
502.033497	0.233114
502.399546	0.236132
502.765537	0.237588
503.131470	0.236063
503.497345	0.232421
503.863163	0.241144
504.228923	0.234267
504.594625	0.232902
504.960269	0.238182
505.325856	0.233583
505.691385	0.237768
506.056856	0.234660
506.422270	0.234089
506.787625	0.236188
507.152924	0.233756
507.518164	0.234418
507.883347	0.235786
508.248472	0.237739
508.613540	0.232916
508.978550	0.235434
509.343503	0.235858
509.708398	0.233616
510.073236	0.231326
510.438016	0.231210
510.802738	0.231927
511.167403	0.230823
511.532010	0.232697
511.896561	0.228596
512.261053	0.227071
512.625488	0.229435
512.989866	0.229731
513.354186	0.229795
513.718449	0.231736
514.082655	0.228011
514.446803	0.230456
514.810894	0.227921
515.174927	0.230768
515.538904	0.229958
515.902822	0.226974
516.266684	0.229300
516.630488	0.230413
516.994235	0.229542
517.357925	0.228112
517.721558	0.226242
518.085133	0.226127
518.448651	0.225848
518.812112	0.228072
519.175516	0.227801
519.538863	0.225259
519.902152	0.227154
520.265385	0.223869
520.628560	0.225514
520.991678	0.226239
521.354739	0.224933
521.717743	0.226202
522.080690	0.226876
522.443580	0.223884
522.806413	0.224737
523.169189	0.224299
523.531908	0.222883
523.894569	0.226870
524.257174	0.226599
524.619722	0.224387
524.982213	0.225471
525.344647	0.224503
525.707025	0.225482
526.069345	0.223480
526.431608	0.224778
526.793815	0.223054
527.155964	0.227100
527.518057	0.226036
527.880093	0.227042
528.242072	0.225659
528.603995	0.227502
528.965860	0.229155
529.327669	0.228105
529.689421	0.228884
530.051117	0.229840
530.412755	0.227543
530.774337	0.229830
531.135862	0.230119
531.497331	0.229529
531.858743	0.232599
532.220098	0.229280
532.581396	0.231570
532.942638	0.232239
533.303824	0.233070
533.664953	0.232970
534.026025	0.234800
534.387040	0.232574
534.747999	0.232637
535.108902	0.231202
535.469748	0.236020
535.830537	0.234415
536.191270	0.234439
536.551947	0.234188
536.912567	0.234240
537.273131	0.235772
537.633638	0.235937
537.994089	0.236473
538.354483	0.237353
538.714821	0.234514
539.075103	0.234505
539.435328	0.235180
539.795497	0.238874
540.155609	0.235133
540.515665	0.233458
540.875665	0.238972
541.235609	0.237660
541.595496	0.237707
541.955328	0.234130
542.315102	0.237082
542.674821	0.238161
543.034483	0.237923
543.394090	0.237956
543.753640	0.239596
544.113134	0.234499
544.472571	0.237914
544.831953	0.234722
545.191278	0.238735
545.550548	0.238368
545.909761	0.234976
546.268918	0.235938
546.628019	0.234210
546.987064	0.236790
547.346053	0.238875
547.704986	0.236681
548.063863	0.236644
548.422684	0.237096
548.781449	0.238855
549.140158	0.236542
549.498811	0.239141
549.857408	0.242231
550.215949	0.237282
550.574434	0.240103
550.932864	0.238254
551.291237	0.236833
551.649555	0.238340
552.007817	0.237814
552.366022	0.239013
552.724173	0.239222
553.082267	0.239267
553.440305	0.236112
553.798288	0.240865
554.156215	0.237339
554.514086	0.237957
554.871902	0.241257
555.229661	0.240371
555.587365	0.240818
555.945014	0.243422
556.302606	0.240610
556.660143	0.242598
557.017625	0.239313
557.375050	0.241877
557.732421	0.238602
558.089735	0.240760
558.446994	0.240769
558.804197	0.239914
559.161345	0.240001
559.518437	0.243330
559.875474	0.240867
560.232455	0.240336
560.589381	0.241429
560.946251	0.241723
561.303065	0.239253
561.659825	0.240751
562.016528	0.241938
562.373177	0.244772
562.729770	0.242382
563.086307	0.244558
563.442789	0.242112
563.799216	0.245041
564.155587	0.243873
564.511904	0.244926
564.868164	0.244992
565.224370	0.244955
565.580520	0.246644
565.936615	0.246337
566.292654	0.249367
566.648638	0.246309
567.004567	0.247599
567.360441	0.248094
567.716260	0.249759
568.072023	0.247731
568.427732	0.248768
568.783385	0.250878
569.138982	0.248979
569.494525	0.248732
569.850013	0.251634
570.205445	0.249765
570.560823	0.252491
570.916145	0.254386
571.271412	0.252613
571.626625	0.254031
571.981782	0.254550
572.336884	0.255728
572.691931	0.255379
573.046923	0.256266
573.401860	0.257675
573.756743	0.259234
574.111570	0.258108
574.466342	0.259011
574.821059	0.257913
575.175722	0.260519
575.530330	0.260598
575.884882	0.260862
576.239380	0.262751
576.593823	0.263319
576.948211	0.262688
577.302544	0.266054
577.656823	0.265390
578.011047	0.265522
578.365216	0.266096
578.719330	0.268479
579.073389	0.268095
579.427394	0.269216
579.781344	0.270128
580.135239	0.271725
580.489080	0.271670
580.842866	0.274083
581.196597	0.274310
581.550273	0.272844
581.903895	0.273880
582.257463	0.272128
582.610975	0.275497
582.964434	0.274635
583.317837	0.277545
583.671186	0.277549
584.024481	0.277492
584.377721	0.279792
584.730906	0.280673
585.084037	0.279895
585.437113	0.281294
585.790135	0.280966
586.143103	0.284026
586.496016	0.285447
586.848874	0.282533
587.201679	0.283384
587.554428	0.286732
587.907124	0.285538
588.259765	0.285980
588.612352	0.286821
588.964884	0.290564
589.317362	0.290429
589.669786	0.290152
590.022155	0.288688
590.374470	0.288013
590.726731	0.289910
591.078937	0.294797
591.431090	0.291328
591.783188	0.295301
592.135232	0.295472
592.487222	0.295649
592.839157	0.294192
593.191038	0.296111
593.542866	0.297591
593.894639	0.301404
594.246358	0.299538
594.598022	0.298741
594.949633	0.302803
595.301190	0.303242
595.652692	0.302933
596.004141	0.298999
596.355535	0.306393
596.706876	0.307031
597.058162	0.309515
597.409395	0.306953
597.760573	0.304553
598.111698	0.307934
598.462768	0.308264
598.813785	0.309900
599.164748	0.311084
599.515657	0.310852
599.866511	0.314711
600.217312	0.309714
600.568060	0.315340
600.918753	0.311499
601.269392	0.312663
601.619978	0.315754
601.970510	0.313122
602.320988	0.313639
602.671412	0.311371
603.021783	0.313586
603.372100	0.315294
603.722363	0.314858
604.072572	0.315667
604.422728	0.315455
604.772830	0.317675
605.122878	0.316737
605.472872	0.317507
605.822813	0.316209
606.172701	0.318591
606.522534	0.316029
606.872314	0.316078
607.222041	0.316827
607.571714	0.314992
607.921333	0.316502
608.270899	0.316297
608.620411	0.312718
608.969870	0.316767
609.319276	0.317152
609.668627	0.317083
610.017926	0.315542
610.367171	0.313836
610.716362	0.314857
611.065500	0.314692
611.414585	0.313646
611.763616	0.314300
612.112594	0.314754
612.461518	0.314191
612.810389	0.312024
613.159207	0.314043
613.507971	0.315965
613.856682	0.311464
614.205340	0.313153
614.553945	0.310345
614.902496	0.313917
615.250994	0.311969
615.599439	0.312674
615.947830	0.312112
616.296169	0.313023
616.644454	0.312798
616.992686	0.312486
617.340864	0.310538
617.688990	0.314267
618.037063	0.310899
618.385082	0.312628
618.733048	0.309520
619.080961	0.311728
619.428821	0.311144
619.776628	0.310866
620.124382	0.312712
620.472083	0.312829
620.819731	0.312143
621.167326	0.315950
621.514868	0.316034
621.862357	0.320407
622.209793	0.319737
622.557176	0.322016
622.904506	0.323111
623.251783	0.325391
623.599007	0.327623
623.946179	0.327608
624.293297	0.329325
624.640363	0.333329
624.987376	0.333528
625.334336	0.336245
625.681243	0.338201
626.028097	0.338657
626.374899	0.340080
626.721647	0.339978
627.068343	0.343440
627.414987	0.344476
627.761577	0.346837
628.108115	0.344891
628.454600	0.350149
628.801032	0.347410
629.147412	0.349691
629.493739	0.350158
629.840014	0.353145
630.186236	0.350818
630.532405	0.356105
630.878521	0.353414
631.224585	0.355749
631.570597	0.358866
631.916556	0.357685
632.262462	0.358268
632.608316	0.360523
632.954117	0.360961
633.299866	0.361737
633.645562	0.362068
633.991206	0.366473
634.336797	0.369237
634.682336	0.371688
635.027823	0.373089
635.373257	0.373810
635.718639	0.377593
636.063968	0.376502
636.409245	0.382587
636.754470	0.382655
637.099642	0.385004
637.444762	0.388917
637.789829	0.387578
638.134845	0.390807
638.479808	0.392061
638.824719	0.392036
639.169577	0.396045
639.514383	0.394339
639.859137	0.399363
640.203839	0.398590
640.548489	0.399401
640.893086	0.400521
641.237632	0.402486
641.582125	0.400660
641.926566	0.402489
642.270955	0.402503
642.615292	0.402931
642.959576	0.401973
643.303809	0.402268
643.647990	0.401717
643.992118	0.402883
644.336195	0.406937
644.680219	0.404459
645.024192	0.405604
645.368112	0.398723
645.711981	0.398176
646.055797	0.393112
646.399562	0.395585
646.743274	0.387375
647.086935	0.384913
647.430544	0.384924
647.774101	0.384047
648.117606	0.384139
648.461059	0.383987
648.804460	0.386867
649.147810	0.391721
649.491108	0.393648
649.834354	0.394758
650.177548	0.400292
650.520690	0.405902
650.863781	0.407018
651.206820	0.405989
651.549807	0.411217
651.892742	0.414887
652.235626	0.414103
652.578458	0.415115
652.921238	0.421745
653.263967	0.419450
653.606644	0.422871
653.949269	0.423319
654.291843	0.426720
654.634365	0.423589
654.976836	0.427001
655.319255	0.426998
655.661622	0.428533
656.003938	0.428465
656.346203	0.431516
656.688416	0.429589
657.030577	0.433058
657.372687	0.434543
657.714746	0.435687
658.056753	0.432683
658.398708	0.436195
658.740612	0.437366
659.082465	0.433739
659.424266	0.434764
659.766016	0.434216
660.107715	0.436278
660.449362	0.435283
660.790958	0.435893
661.132503	0.436261
661.473996	0.434364
661.815438	0.435278
662.156829	0.435477
662.498168	0.435911
662.839456	0.437353
663.180693	0.434842
663.521879	0.434744
663.863013	0.435359
664.204097	0.434479
664.545129	0.431426
664.886110	0.431578
665.227040	0.429176
665.567918	0.431911
665.908746	0.429731
666.249522	0.429240
666.590248	0.430570
666.930922	0.428517
667.271545	0.427163
667.612118	0.427620
667.952639	0.429026
668.293109	0.427837
668.633528	0.430823
668.973896	0.430163
669.314213	0.430787
669.654480	0.432565
669.994695	0.432600
670.334859	0.433972
670.674973	0.434190
671.015035	0.434141
671.355047	0.433608
671.695008	0.435229
672.034918	0.436407
672.374777	0.436160
672.714585	0.437238
673.054342	0.437328
673.394049	0.437778
673.733705	0.435205
674.073310	0.436324
674.412864	0.438867
674.752368	0.439346
675.091820	0.440146
675.431223	0.444513
675.770574	0.443952
676.109875	0.447683
676.449125	0.447627
676.788324	0.449863
677.127473	0.454999
677.466571	0.454897
677.805619	0.456322
678.144616	0.458133
678.483562	0.459329
678.822458	0.461284
679.161303	0.462694
679.500098	0.462997
679.838842	0.464704
680.177535	0.464534
680.516179	0.463071
680.854771	0.462041
681.193314	0.455285
681.531805	0.445983
681.870247	0.435110
682.208638	0.427668
682.546978	0.426587
682.885268	0.428228
683.223508	0.434650
683.561697	0.438175
683.899836	0.441060
684.237925	0.444338
684.575963	0.446846
684.913951	0.450271
685.251889	0.446228
685.589776	0.448016
685.927614	0.450237
686.265401	0.444645
686.603137	0.445626
686.940824	0.439427
687.278460	0.438052
687.616046	0.437411
687.953582	0.432702
688.291068	0.433959
688.628504	0.429216
688.965889	0.431449
689.303224	0.435362
689.640510	0.439706
689.977745	0.445758
690.314930	0.453739
690.652065	0.458622
690.989150	0.465437
691.326185	0.472114
691.663170	0.476664
692.000105	0.483886
692.336990	0.490211
692.673825	0.493294
693.010610	0.499734
693.347345	0.505342
693.684030	0.507862
694.020665	0.512673
694.357251	0.520532
694.693786	0.520031
695.030272	0.524610
695.366707	0.528049
695.703093	0.531535
696.039429	0.528577
696.375716	0.530645
696.711952	0.532641
697.048139	0.535498
697.384276	0.537695
697.720363	0.535377
698.056400	0.534782
698.392388	0.540928
698.728326	0.543686
699.064214	0.546667
699.400053	0.546699
699.735842	0.550392
700.071581	0.553950
700.407270	0.556114
700.742910	0.558205
701.078501	0.565972
701.414042	0.565661
701.749533	0.569304
702.084974	0.578035
702.420366	0.569895
702.755709	0.577102
703.091002	0.585490
703.426246	0.578075
703.761440	0.584262
704.096584	0.589624
704.431679	0.586037
704.766725	0.588310
705.101721	0.590078
705.436668	0.585869
705.771565	0.593845
706.106413	0.589841
706.441212	0.585936
706.775961	0.584351
707.110661	0.586778
707.445311	0.582772
707.779913	0.580657
708.114465	0.579208
708.448967	0.575071
708.783421	0.567012
709.117825	0.561776
709.452180	0.562416
709.786485	0.556165
710.120742	0.545741
710.454949	0.547821
710.789107	0.539415
711.123216	0.531354
711.457275	0.532424
711.791286	0.523779
712.125247	0.522460
712.459159	0.533030
712.793023	0.525933
713.126837	0.530214
713.460602	0.530943
713.794318	0.539265
714.127985	0.538717
714.461602	0.548872
714.795171	0.552124
715.128691	0.559653
715.462162	0.567248
715.795584	0.573101
716.128957	0.576392
716.462281	0.582505
716.795556	0.586173
717.128782	0.590920
717.461960	0.600338
717.795088	0.598922
718.128167	0.605043
718.461198	0.613732
718.794180	0.614034
719.127113	0.617410
719.459997	0.620849
719.792833	0.626557
720.125619	0.628627
720.458357	0.634156
720.791046	0.633733
721.123686	0.636938
721.456278	0.643908
721.788821	0.640912
722.121315	0.646211
722.453761	0.649857
722.786158	0.647938
723.118506	0.644053
723.450805	0.651590
723.783056	0.647887
724.115259	0.645300
724.447412	0.644664
724.779518	0.646748
725.111574	0.645245
725.443582	0.640582
725.775542	0.643360
726.107453	0.634839
726.439315	0.634390
726.771129	0.633557
727.102895	0.626780
727.434612	0.619855
727.766281	0.617574
728.097901	0.617317
728.429473	0.616649
728.760996	0.615178
729.092471	0.615246
729.423897	0.619025
729.755276	0.618365
730.086606	0.617330
730.417887	0.612388
730.749120	0.602865
731.080305	0.594090
731.411442	0.589963
731.742530	0.594639
732.073570	0.594460
732.404562	0.586159
732.735506	0.588014
733.066401	0.592654
733.397249	0.601553
733.728048	0.612711
734.058798	0.625218
734.389501	0.635797
734.720156	0.646570
735.050762	0.653646
735.381320	0.654138
735.711831	0.664911
736.042293	0.669236
736.372707	0.665526
736.703073	0.670223
737.033391	0.671719
737.363661	0.669058
737.693883	0.664340
738.024056	0.663063
738.354182	0.663970
738.684260	0.652849
739.014290	0.648652
739.344272	0.649756
739.674207	0.643001
740.004093	0.642613
740.333931	0.642457
740.663722	0.642875
740.993464	0.643041
741.323159	0.647073
741.652806	0.652407
741.982405	0.656939
742.311956	0.660843
742.641460	0.663578
742.970915	0.666810
743.300323	0.675223
743.629683	0.681812
743.958996	0.683842
744.288260	0.687053
744.617477	0.693644
744.946647	0.694916
745.275768	0.700705
745.604842	0.700500
745.933869	0.710320
746.262847	0.711075
746.591778	0.704761
746.920662	0.710155
747.249498	0.717414
747.578286	0.708098
747.907027	0.704485
748.235720	0.704912
748.564365	0.699749
748.892963	0.700669
749.221514	0.703608
749.550017	0.707564
749.878473	0.706908
750.206881	0.713887
750.535242	0.715183
750.863555	0.714859
751.191821	0.716223
751.520039	0.718685
751.848210	0.724119
752.176334	0.717377
752.504411	0.715790
752.832440	0.723769
753.160421	0.727117
753.488356	0.725794
753.816243	0.723466
754.144082	0.731690
754.471875	0.735880
754.799620	0.730513
755.127318	0.732981
755.454969	0.732395
755.782572	0.731309
756.110129	0.736832
756.437638	0.739312
756.765100	0.735351
757.092515	0.734188
757.419882	0.732672
757.747203	0.737770
758.074477	0.736431
758.401703	0.735760
758.728882	0.730041
759.056014	0.728863
759.383099	0.727373
759.710138	0.728735
760.037129	0.724633
760.364073	0.718902
760.690970	0.721276
761.017820	0.727722
761.344623	0.722278
761.671379	0.712853
761.998088	0.701297
762.324751	0.678975
762.651366	0.637191
762.977935	0.570805
763.304456	0.518585
763.630931	0.509175
763.957359	0.548358
764.283740	0.592397
764.610074	0.618541
764.936362	0.650893
765.262602	0.676825
765.588796	0.698805
765.914943	0.716936
766.241044	0.734931
766.567097	0.741315
766.893104	0.751329
767.219064	0.757913
767.544978	0.764026
767.870845	0.776842
768.196665	0.781229
768.522438	0.779487
768.848165	0.781201
769.173846	0.788875
769.499479	0.794165
769.825066	0.797174
770.150607	0.802695
770.476101	0.798367
770.801548	0.798473
771.126949	0.809591
771.452303	0.814178
771.777611	0.813506
772.102872	0.812325
772.428087	0.817165
772.753256	0.820264
773.078378	0.823212
773.403453	0.832397
773.728482	0.836981
774.053465	0.829465
774.378401	0.832713
774.703291	0.842041
775.028135	0.841392
775.352932	0.842615
775.677683	0.845449
776.002388	0.847222
776.327046	0.845497
776.651658	0.848882
776.976224	0.853209
777.300743	0.852081
777.625216	0.855007
777.949643	0.857195
778.274024	0.856330
778.598359	0.858760
778.922647	0.857716
779.246889	0.857384
779.571086	0.861365
779.895236	0.864198
780.219339	0.861571
780.543397	0.858230
780.867409	0.857099
781.191374	0.859841
781.515294	0.860000
781.839167	0.858804
782.162995	0.861820
782.486776	0.859565
782.810511	0.860984
783.134201	0.863468
783.457844	0.862066
783.781441	0.864461
784.104993	0.870520
784.428498	0.871131
784.751958	0.865668
785.075372	0.868772
785.398739	0.872125
785.722061	0.868221
786.045337	0.863899
786.368568	0.870294
786.691752	0.871899
787.014891	0.857480
787.337983	0.848580
787.661030	0.839801
787.984031	0.823960
788.306987	0.810640
788.629897	0.812915
788.952760	0.816465
789.275579	0.821079
789.598351	0.836422
789.921078	0.850360
790.243759	0.851054
790.566395	0.856361
790.888984	0.863426
791.211529	0.868510
791.534027	0.871511
791.856480	0.874210
792.178888	0.879003
792.501249	0.881566
792.823566	0.883023
793.145836	0.883271
793.468062	0.884295
793.790241	0.885390
794.112375	0.882440
794.434464	0.877866
794.756507	0.877327
795.078505	0.878607
795.400457	0.872569
795.722364	0.859731
796.044226	0.853165
796.366042	0.851477
796.687812	0.855141
797.009538	0.852376
797.331218	0.854329
797.652852	0.858529
797.974442	0.864581
798.295986	0.863656
798.617484	0.866370
798.938938	0.871434
799.260346	0.875567
799.581709	0.878300
799.903026	0.879029
800.224299	0.879824
800.545526	0.883796
800.866708	0.889337
801.187845	0.891512
801.508936	0.891888
801.829983	0.890107
802.150984	0.892878
802.471940	0.897587
802.792851	0.897387
803.113717	0.897936
803.434538	0.895949
803.755314	0.899249
804.076045	0.900219
804.396731	0.901030
804.717372	0.900112
805.037967	0.901017
805.358518	0.899308
805.679024	0.896957
805.999485	0.896285
806.319901	0.896914
806.640272	0.897983
806.960598	0.896830
807.280879	0.895373
807.601115	0.892215
807.921306	0.896116
808.241453	0.896048
808.561554	0.893184
808.881611	0.893008
809.201623	0.896198
809.521590	0.894015
809.841513	0.896777
810.161390	0.896977
810.481223	0.898209
810.801011	0.902595
811.120755	0.902898
811.440453	0.902011
811.760107	0.900052
812.079716	0.900133
812.399281	0.904433
812.718801	0.906289
813.038276	0.907038
813.357707	0.906084
813.677093	0.904623
813.996434	0.907214
814.315731	0.909004
814.634983	0.909798
814.954191	0.907845
815.273354	0.904725
815.592473	0.901106
815.911547	0.901634
816.230577	0.898522
816.549562	0.896272
816.868502	0.896858
817.187399	0.893462
817.506250	0.888264
817.825058	0.889569
818.143821	0.885322
818.462539	0.881247
818.781213	0.873843
819.099843	0.861806
819.418429	0.845494
819.736970	0.829308
820.055466	0.809027
820.373919	0.783831
820.692327	0.750581
821.010691	0.716093
821.329011	0.638587
821.647286	0.522032
821.965517	0.408562
822.283704	0.365938
822.601847	0.366871
822.919945	0.402339
823.237999	0.436302
823.556010	0.483427
823.873976	0.539686
824.191897	0.590486
824.509775	0.632882
824.827609	0.678394
825.145398	0.700501
825.463144	0.704246
825.780845	0.686809
826.098502	0.667911
826.416116	0.622107
826.733685	0.577787
827.051210	0.568855
827.368692	0.583617
827.686129	0.621575
828.003522	0.674612
828.320872	0.722161
828.638177	0.765964
828.955439	0.798792
829.272656	0.821882
829.589830	0.838869
829.906960	0.854135
830.224046	0.866489
830.541088	0.877557
830.858086	0.881738
831.175041	0.887419
831.491952	0.886210
831.808819	0.883275
832.125642	0.877201
832.442421	0.862253
832.759157	0.840229
833.075849	0.793180
833.392497	0.730214
833.709101	0.688716
834.025662	0.697897
834.342179	0.730209
834.658653	0.768760
834.975083	0.806000
835.291469	0.831264
835.607811	0.855165
835.924110	0.869767
836.240366	0.887921
836.556578	0.901856
836.872746	0.908572
837.188871	0.914048
837.504952	0.920875
837.820990	0.923745
838.136984	0.927327
838.452935	0.929705
838.768842	0.932219
839.084706	0.925114
839.400526	0.899358
839.716303	0.858039
840.032037	0.835362
840.347727	0.839913
840.663373	0.858224
840.978977	0.879589
841.294537	0.902126
841.610054	0.918384
841.925527	0.926458
842.240957	0.932583
842.556344	0.940111
842.871687	0.946550
843.186987	0.950223
843.502244	0.950404
843.817458	0.952429
844.132629	0.956896
844.447756	0.960189
844.762840	0.961704
845.077881	0.960041
845.392879	0.959928
845.707833	0.963021
846.022745	0.964766
846.337613	0.965531
846.652438	0.965737
846.967221	0.965017
847.281960	0.965110
847.596656	0.967067
847.911309	0.966323
848.225919	0.968235
848.540485	0.968513
848.855009	0.969962
849.169490	0.968827
849.483928	0.969094
849.798323	0.968819
850.112675	0.970978
850.426984	0.969493
850.741251	0.970112
851.055474	0.970839
851.369654	0.968480
851.683792	0.970470
851.997887	0.969985
852.311938	0.969934
852.625947	0.970649
852.939914	0.969176
853.253837	0.969852
853.567718	0.970181
853.881555	0.971523
854.195350	0.969227
854.509103	0.969704
854.822812	0.971040
855.136479	0.970747
855.450103	0.970464
855.763685	0.968655
856.077224	0.970171
856.390720	0.970040
856.704173	0.971733
857.017584	0.969199
857.330953	0.967996
857.644278	0.969078
857.957561	0.968816
858.270802	0.968950
858.584000	0.969497
858.897155	0.967630
859.210268	0.968607
859.523339	0.968698
859.836367	0.970732
860.149352	0.970333
860.462295	0.970131
860.775195	0.970094
861.088054	0.969873
861.400869	0.970417
861.713642	0.971476
862.026373	0.970016
862.339062	0.970969
862.651708	0.968930
862.964312	0.968214
863.276873	0.969215
863.589392	0.968528
863.901869	0.966641
864.214303	0.965538
864.526696	0.964046
864.839045	0.963926
865.151353	0.962425
865.463619	0.962515
865.775842	0.963971
866.088023	0.962461
866.400162	0.962273
866.712258	0.962466
867.024313	0.964309
867.336325	0.963453
867.648296	0.963037
867.960224	0.962741
868.272110	0.961924
868.583954	0.964608
868.895755	0.963807
869.207515	0.962125
869.519233	0.960249
869.830909	0.961276
870.142542	0.962941
870.454134	0.961523
870.765684	0.961207
871.077191	0.958573
871.388657	0.959455
871.700081	0.957986
872.011463	0.958653
872.322803	0.958464
872.634101	0.957213
872.945357	0.954228
873.256571	0.953880
873.567744	0.952218
873.878874	0.954652
874.189963	0.951996
874.501010	0.951143
874.812015	0.949562
875.122979	0.951917
875.433900	0.953069
875.744780	0.955132
876.055618	0.951729
876.366415	0.950087
876.677169	0.949270
876.987882	0.951067
877.298554	0.951854
877.609183	0.948358
877.919771	0.944732
878.230317	0.943531
878.540822	0.940517
878.851285	0.934935
879.161707	0.927851
879.472087	0.915774
879.782425	0.899422
880.092722	0.864700
880.402977	0.812011
880.713191	0.750695
881.023363	0.691752
881.333494	0.657090
881.643583	0.629636
881.953631	0.629333
882.263637	0.658313
882.573602	0.696915
882.883526	0.723515
883.193408	0.746911
883.503248	0.769834
883.813048	0.797585
884.122806	0.826425
884.432522	0.850095
884.742197	0.870998
885.051831	0.881533
885.361424	0.891922
885.670975	0.903822
885.980485	0.913678
886.289954	0.919486
886.599382	0.924185
886.908768	0.928975
887.218113	0.934076
887.527417	0.940349
887.836680	0.942189
888.145901	0.944495
888.455082	0.945332
888.764221	0.951512
889.073319	0.952121
889.382376	0.952374
889.691392	0.953765
890.000366	0.952598
890.309300	0.954067
890.618193	0.952959
890.927044	0.953099
891.235855	0.951379
891.544625	0.951533
891.853353	0.951650
892.162041	0.950268
892.470687	0.942559
892.779293	0.938846
893.087858	0.933796
893.396381	0.926516
893.704864	0.913403
894.013306	0.888291
894.321707	0.862148
894.630068	0.847501
894.938387	0.843671
895.246665	0.843375
895.554903	0.857207
895.863100	0.870605
896.171256	0.887239
896.479371	0.906671
896.787446	0.918725
897.095480	0.925239
897.403473	0.928599
897.711425	0.933187
898.019336	0.940506
898.327207	0.943723
898.635038	0.945138
898.942827	0.945345
899.250576	0.948126
899.558284	0.953018
899.865952	0.955112
900.173579	0.955051
900.481165	0.955501
900.788711	0.959833
901.096216	0.961905
901.403681	0.961779
901.711105	0.963519
902.018489	0.963793
902.325832	0.962868
902.633135	0.960664
902.940397	0.955648
903.247619	0.943549
903.554800	0.918475
903.861941	0.877442
904.169041	0.842672
904.476101	0.824593
904.783121	0.827456
905.090100	0.842283
905.397039	0.863856
905.703938	0.886396
906.010796	0.905664
906.317614	0.923395
906.624391	0.935898
906.931129	0.943014
907.237826	0.952056
907.544483	0.959581
907.851099	0.963034
908.157675	0.967743
908.464211	0.970263
908.770707	0.973011
909.077163	0.974729
909.383578	0.975721
909.689954	0.974952
909.996289	0.976148
910.302584	0.978916
910.608839	0.978780
910.915054	0.979229
911.221229	0.978741
911.527363	0.977697
911.833458	0.977706
912.139513	0.977447
912.445527	0.976325
912.751502	0.973912
913.057436	0.972831
913.363331	0.971497
913.669186	0.966955
913.975000	0.961853
914.280775	0.954116
914.586510	0.948123
914.892205	0.935312
915.197859	0.913587
915.503475	0.886674
915.809050	0.866893
916.114585	0.861153
916.420081	0.858833
916.725536	0.853926
917.030952	0.863051
917.336328	0.876181
917.641665	0.892410
917.946961	0.906760
918.252218	0.918455
918.557435	0.927607
918.862612	0.936682
919.167750	0.942486
919.472848	0.947089
919.777906	0.952245
920.082925	0.958056
920.387904	0.960925
920.692843	0.963815
920.997743	0.963876
921.302603	0.967563
921.607423	0.970709
921.912204	0.971408
922.216946	0.972114
922.521647	0.973497
922.826310	0.975286
923.130932	0.978101
923.435516	0.978353
923.740059	0.980811
924.044564	0.978338
924.349028	0.981084
924.653454	0.984302
924.957840	0.985446
925.262186	0.984252
925.566493	0.982580
925.870761	0.986471
926.174989	0.986243
926.479178	0.988028
926.783328	0.989014
927.087438	0.989111
927.391509	0.989846
927.695541	0.990791
927.999533	0.989286
928.303486	0.989005
928.607400	0.991906
928.911275	0.990115
929.215110	0.991464
929.518906	0.991978
929.822663	0.990283
930.126381	0.990685
930.430060	0.991136
930.733699	0.989814
931.037299	0.990571
931.340861	0.990953
931.644383	0.990384
931.947866	0.990075
932.251309	0.991692
932.554714	0.990451
932.858080	0.989641
933.161407	0.989407
933.464694	0.991471
933.767943	0.990507
934.071153	0.991252
934.374323	0.991430
934.677455	0.991765
934.980548	0.992804
935.283602	0.990921
935.586617	0.991912
935.889593	0.991207
936.192530	0.990686
936.495428	0.991276
936.798287	0.991050
937.101108	0.990697
937.403890	0.988849
937.706632	0.989016
938.009336	0.986966
938.312002	0.986450
938.614628	0.984522
938.917216	0.983509
939.219765	0.981792
939.522275	0.984129
939.824747	0.983489
940.127179	0.983942
940.429573	0.984629
940.731929	0.984802
941.034246	0.984900
941.336524	0.986052
941.638763	0.987074
941.940964	0.986978
942.243126	0.987248
942.545250	0.988072
942.847335	0.988148
943.149381	0.988683
943.451389	0.989725
943.753359	0.988324
944.055290	0.990793
944.357182	0.989785
944.659036	0.988771
944.960851	0.989504
945.262628	0.991299
945.564367	0.990318
945.866067	0.989366
946.167729	0.991511
946.469352	0.989744
946.770937	0.988828
947.072484	0.991027
947.373992	0.989778
947.675462	0.992084
947.976893	0.991187
948.278286	0.991267
948.579641	0.991381
948.880958	0.990708
949.182236	0.991143
949.483476	0.991218
949.784678	0.991571
950.085841	0.991547
950.386967	0.991195
950.688054	0.991138
950.989103	0.993112
951.290114	0.990148
951.591087	0.990771
951.892021	0.990046
952.192917	0.990205
952.493776	0.988189
952.794596	0.988514
953.095378	0.988989
953.396122	0.989235
953.696828	0.988763
953.997496	0.990183
954.298126	0.990945
954.598718	0.991156
954.899272	0.992238
955.199788	0.989674
955.500266	0.993099
955.800706	0.993878
956.101108	0.994726
956.401472	0.994313
956.701798	0.994321
957.002087	0.993518
957.302337	0.994543
957.602550	0.995356
957.902724	0.995196
958.202861	0.995603
958.502960	0.995009
958.803022	0.994821
959.103045	0.996611
959.403031	0.996849
959.702979	0.995664
960.002889	0.996662
960.302762	0.994450
960.602596	0.995975
960.902393	0.994961
961.202153	0.997059
961.501875	0.996410
961.801559	0.995921
962.101205	0.996395
962.400814	0.997141
962.700385	0.996516
962.999918	0.996265
963.299414	0.997192
963.598873	0.995351
963.898293	0.996758
964.197677	0.996252
964.497022	0.997173
964.796331	0.998901
965.095601	0.996776
965.394835	0.996749
965.694030	0.996566
965.993189	0.997413
966.292309	0.998000
966.591393	0.998896
966.890439	0.997029
967.189447	0.997521
967.488419	0.998588
967.787353	0.996246
968.086249	0.996979
968.385108	0.997506
968.683930	0.997457
968.982714	0.998382
969.281462	0.997654
969.580172	0.996009
969.878844	0.997252
970.177480	0.997737
970.476078	0.997966
970.774639	0.997365
971.073162	0.999002
971.371649	0.996962
971.670098	0.997436
971.968510	0.997662
972.266885	0.997345
972.565223	0.998111
972.863524	0.997532
973.161788	0.996706
973.460014	0.997364
973.758204	0.996665
974.056356	0.995875
974.354471	0.994639
974.652550	0.997082
974.950591	0.996654
975.248595	0.997046
975.546563	0.998277
975.844493	0.996879
976.142386	0.997780
976.440243	0.997167
976.738062	0.997455
977.035845	0.998402
977.333590	0.997385
977.631299	0.998461
977.928971	0.996963
978.226606	0.997966
978.524204	0.995126
978.821765	0.998561
979.119290	0.997942
979.416777	0.997703
979.714228	0.998079
980.011642	0.997011
980.309020	0.997535
980.606360	0.997191
980.903664	0.999715
981.200931	0.997748
981.498162	0.996429
981.795356	0.994635
982.092513	0.994283
982.389633	0.994330
982.686717	0.992155
982.983764	0.991904
983.280775	0.991673
983.577749	0.991111
983.874686	0.992107
984.171587	0.992839
984.468451	0.995416
984.765279	0.995593
985.062070	0.994381
985.358824	0.996178
985.655543	0.995385
985.952224	0.996223
986.248869	0.997137
986.545478	0.997958
986.842050	0.997658
987.138586	0.996592
987.435086	0.997440
987.731549	0.998299
988.027975	0.998217
988.324366	0.998001
988.620719	0.997913
988.917037	0.996304
989.213318	0.998965
989.509563	0.999619
989.805772	0.997832
990.101944	0.999468
990.398080	0.998278
990.694180	0.998344
990.990244	0.999234
991.286271	0.998437
991.582262	0.998690
991.878217	0.998680
992.174136	0.998384
992.470019	0.998968
992.765865	0.997947
993.061676	0.998409
993.357450	0.996947
993.653188	0.996113
993.948890	0.998022
994.244556	0.998716
994.540186	0.996946
994.835780	0.997073
995.131337	0.998063
995.426859	0.997745
995.722345	0.997872
996.017795	0.997844
996.313208	0.996701
996.608586	0.996290
996.903928	0.997603
997.199234	0.997039
997.494504	0.997486
997.789738	0.996820
998.084936	0.995252
998.380099	0.999556
998.675225	0.997978
998.970316	0.998260
999.265371	0.998570
999.560390	0.998560
999.855373	0.998385
1000.150320	0.999167
1000.445232	0.999154
1000.740108	0.998766
1001.034948	0.998026
1001.329752	0.999083
1001.624521	0.998287
1001.919254	0.997687
1002.213951	0.997705
1002.508613	0.998733
1002.803239	0.999877
1003.097829	0.999505
1003.392384	0.999749
1003.686903	0.998780
1003.981386	0.999900
1004.275834	0.999803
1004.570246	0.999314
1004.864623	0.999344
1005.158964	0.999554
1005.453270	0.999136
1005.747540	0.998606
1006.041775	0.999213
1006.335974	1.000537
1006.630138	0.999767
1006.924266	1.000718
1007.218359	1.001374
1007.512416	1.000034
1007.806438	1.000574
1008.100425	0.999771
1008.394376	0.998475
1008.688292	0.999269
1008.982172	1.000846
1009.276017	1.000402
1009.569827	1.000339
1009.863602	0.999422
1010.157341	1.000068
1010.451045	1.000170
1010.744714	0.999613
1011.038347	0.999691
1011.331945	0.999312
1011.625508	0.998285
1011.919036	0.998006
1012.212528	0.998800
1012.505986	0.998051
1012.799408	0.998800
1013.092795	0.999587
1013.386147	0.999669
1013.679464	0.999979
1013.972745	0.998075
1014.265992	0.999275
1014.559204	0.999936
1014.852380	1.000148
1015.145521	1.001397
1015.438628	0.998332
1015.731699	0.999006
1016.024736	0.998361
1016.317737	0.999744
1016.610703	0.999200
1016.903635	1.000174
1017.196531	0.997535
1017.489393	1.001704
1017.782219	0.999135
1018.075011	1.000653
1018.367768	0.999497
1018.660490	1.000042
1018.953177	1.000042
1019.245829	1.000042
