Dividing Wavelength (nm)	Counts (n)	Blue Motor Position (mm): 0.000000	Red Motor Position (mm): 21.500000	
326.493990	1.000085
326.888308	1.000085
327.282561	1.000085
327.676750	1.000337
328.070874	0.999828
328.464933	1.000406
328.858929	0.999196
329.252859	1.000533
329.646726	0.999726
330.040528	1.000592
330.434265	0.999808
330.827938	1.001158
331.221547	1.000132
331.615091	1.001007
332.008571	0.998941
332.401986	0.998990
332.795338	1.000157
333.188625	0.998033
333.581847	0.999387
333.975006	0.999542
334.368100	0.999641
334.761129	1.000112
335.154095	1.000145
335.546996	0.996590
335.939833	0.992825
336.332606	0.993477
336.725315	0.994712
337.117960	0.995322
337.510540	0.994785
337.903056	0.994029
338.295508	0.993132
338.687896	0.995487
339.080220	0.994140
339.472480	0.994992
339.864676	0.994592
340.256807	0.994520
340.648875	0.994571
341.040879	0.994179
341.432818	0.994216
341.824694	0.994624
342.216506	0.995671
342.608253	0.993464
342.999937	0.994745
343.391557	0.994866
343.783113	0.995513
344.174605	0.995624
344.566033	0.996462
344.957397	0.994060
345.348697	0.993932
345.739934	0.994039
346.131106	0.993580
346.522215	0.992619
346.913260	0.994220
347.304241	0.993319
347.695159	0.994869
348.086012	0.993348
348.476802	0.993174
348.867528	0.994225
349.258191	0.992641
349.648789	0.995228
350.039324	0.994179
350.429796	0.995275
350.820203	0.994773
351.210548	0.993930
351.600828	0.994750
351.991045	0.994373
352.381198	0.993308
352.771288	0.994124
353.161314	0.994086
353.551276	0.995278
353.941175	0.993859
354.331010	0.994643
354.720782	0.995097
355.110490	0.994137
355.500135	0.995367
355.889717	0.994113
356.279235	0.994583
356.668689	0.994022
357.058080	0.993499
357.447408	0.995088
357.836672	0.993398
358.225873	0.994755
358.615010	0.995153
359.004084	0.995785
359.393095	0.995351
359.782043	0.994054
360.170927	0.995484
360.559748	0.995522
360.948505	0.993773
361.337199	0.993873
361.725830	0.994540
362.114398	0.993296
362.502903	0.995208
362.891344	0.995270
363.279722	0.994590
363.668037	0.994654
364.056289	0.994271
364.444478	0.995939
364.832603	0.994357
365.220665	0.993478
365.608665	0.993935
365.996601	0.994293
366.384474	0.994919
366.772284	0.994380
367.160031	0.993507
367.547715	0.993109
367.935336	0.994454
368.322893	0.993238
368.710388	0.995070
369.097820	0.994354
369.485189	0.993971
369.872495	0.993501
370.259738	0.993722
370.646918	0.995097
371.034035	0.994633
371.421090	0.994280
371.808081	0.993409
372.195010	0.994077
372.581875	0.995622
372.968678	0.993558
373.355418	0.994927
373.742096	0.995236
374.128710	0.995663
374.515262	0.994210
374.901751	0.995089
375.288177	0.994967
375.674540	0.995520
376.060841	0.993827
376.447079	0.994724
376.833254	0.995208
377.219367	0.995231
377.605417	0.995661
377.991404	0.994695
378.377329	0.994304
378.763191	0.994573
379.148991	0.996275
379.534727	0.996432
379.920402	0.995365
380.306013	0.995139
380.691563	0.995705
381.077049	0.994619
381.462474	0.995347
381.847835	0.996242
382.233134	0.995335
382.618371	0.996159
383.003545	0.995302
383.388657	0.995279
383.773706	0.996793
384.158693	0.996517
384.543618	0.995800
384.928480	0.996518
385.313280	0.996582
385.698017	0.996421
386.082692	0.997486
386.467305	0.996673
386.851856	0.995934
387.236344	0.995939
387.620770	0.995181
388.005133	0.996584
388.389435	0.997566
388.773674	0.996477
389.157851	0.996342
389.541965	0.996867
389.926018	0.996382
390.310008	0.998019
390.693936	0.996266
391.077802	0.996968
391.461606	0.997888
391.845348	0.997121
392.229027	0.998638
392.612645	0.996533
392.996200	0.997833
393.379694	0.996901
393.763125	0.997802
394.146494	0.997872
394.529801	0.995983
394.913047	0.997999
395.296230	0.996241
395.679351	0.996992
396.062410	0.996165
396.445408	0.997634
396.828343	0.996434
397.211217	0.996422
397.594028	0.997405
397.976778	0.996160
398.359466	0.996482
398.742092	0.996621
399.124656	0.997129
399.507158	0.996976
399.889598	0.997380
400.271977	0.997989
400.654294	0.997569
401.036549	0.997274
401.418742	0.997052
401.800874	0.996699
402.182944	0.996697
402.564952	0.996138
402.946898	0.997851
403.328783	0.996326
403.710606	0.996903
404.092367	0.997487
404.474067	0.997501
404.855705	0.996924
405.237282	0.996858
405.618797	0.996890
406.000250	0.995848
406.381642	0.998037
406.762972	0.996037
407.144240	0.997300
407.525447	0.997284
407.906593	0.997184
408.287677	0.997417
408.668700	0.997883
409.049661	0.996384
409.430560	0.997179
409.811399	0.996298
410.192176	0.996283
410.572891	0.996675
410.953545	0.996816
411.334138	0.995635
411.714669	0.996125
412.095139	0.995857
412.475547	0.996848
412.855894	0.996428
413.236180	0.997457
413.616405	0.995875
413.996568	0.996377
414.376670	0.995549
414.756711	0.995479
415.136691	0.995407
415.516609	0.994590
415.896466	0.994878
416.276262	0.992995
416.655997	0.993518
417.035670	0.991726
417.415283	0.992599
417.794834	0.991039
418.174324	0.989879
418.553753	0.989629
418.933121	0.987950
419.312428	0.985794
419.691674	0.984161
420.070859	0.982438
420.449983	0.981942
420.829045	0.979143
421.208047	0.977494
421.586988	0.975352
421.965867	0.972392
422.344686	0.969333
422.723444	0.967391
423.102141	0.965095
423.480777	0.960924
423.859352	0.958423
424.237866	0.952883
424.616319	0.949301
424.994712	0.945690
425.373044	0.942611
425.751314	0.936761
426.129524	0.934227
426.507673	0.928010
426.885762	0.924269
427.263789	0.917875
427.641756	0.915931
428.019662	0.908908
428.397508	0.902230
428.775292	0.895639
429.153016	0.889222
429.530679	0.885792
429.908282	0.877350
430.285824	0.872767
430.663305	0.860803
431.040726	0.859362
431.418086	0.853872
431.795385	0.843881
432.172624	0.835246
432.549802	0.828441
432.926920	0.820517
433.303977	0.811797
433.680974	0.803850
434.057910	0.794222
434.434786	0.786441
434.811601	0.779274
435.188355	0.763814
435.565050	0.758879
435.941683	0.751645
436.318257	0.735381
436.694770	0.726686
437.071222	0.716920
437.447614	0.710318
437.823946	0.705351
438.200218	0.691168
438.576429	0.687455
438.952580	0.674100
439.328670	0.663996
439.704700	0.659411
440.080670	0.652923
440.456580	0.631491
440.832429	0.628523
441.208218	0.626986
441.583947	0.612155
441.959616	0.604601
442.335224	0.599737
442.710773	0.586132
443.086261	0.576438
443.461689	0.579244
443.837057	0.563957
444.212365	0.549618
444.587612	0.548787
444.962800	0.534074
445.337927	0.528561
445.712995	0.542661
446.088002	0.506455
446.462949	0.509236
446.837837	0.506850
447.212664	0.493015
447.587431	0.479531
447.962139	0.449509
448.336786	0.410017
448.711374	0.413661
449.085901	0.446474
449.460369	0.444634
449.834776	0.443189
450.209124	0.420728
450.583412	0.409637
450.957640	0.400418
451.331808	0.406367
451.705917	0.424296
452.079965	0.425191
452.453954	0.410575
452.827883	0.414215
453.201752	0.406672
453.575562	0.415287
453.949311	0.401893
454.323001	0.405550
454.696632	0.399466
455.070202	0.390417
455.443713	0.380919
455.817164	0.374183
456.190556	0.368578
456.563888	0.363708
456.937160	0.359994
457.310373	0.375660
457.683526	0.373509
458.056619	0.377581
458.429653	0.377572
458.802628	0.379718
459.175542	0.373496
459.548398	0.355673
459.921194	0.347938
460.293930	0.347567
460.666607	0.324512
461.039224	0.312245
461.411782	0.307994
461.784280	0.306794
462.156719	0.309778
462.529099	0.314277
462.901419	0.329657
463.273680	0.333640
463.645882	0.333019
464.018024	0.338970
464.390106	0.331293
464.762130	0.316198
465.134094	0.298978
465.505999	0.268366
465.877845	0.238899
466.249631	0.225379
466.621358	0.233062
466.993026	0.246580
467.364634	0.252930
467.736184	0.261526
468.107674	0.269764
468.479105	0.268674
468.850477	0.275798
469.221790	0.282176
469.593043	0.292376
469.964238	0.297119
470.335373	0.296515
470.706449	0.294690
471.077467	0.295465
471.448425	0.257487
471.819324	0.233357
472.190164	0.232568
472.560945	0.261121
472.931667	0.283249
473.302330	0.287380
473.672934	0.299393
474.043479	0.287079
474.413965	0.289424
474.784393	0.292762
475.154761	0.287808
475.525070	0.284971
475.895321	0.290573
476.265513	0.284646
476.635645	0.279883
477.005719	0.280222
477.375734	0.276528
477.745691	0.270108
478.115588	0.266479
478.485427	0.259929
478.855207	0.246925
479.224928	0.229398
479.594591	0.217766
479.964194	0.220937
480.333739	0.222299
480.703226	0.223587
481.072653	0.222315
481.442022	0.217755
481.811333	0.214421
482.180584	0.217786
482.549777	0.223203
482.918912	0.226519
483.287988	0.226294
483.657005	0.225647
484.025964	0.232187
484.394864	0.229473
484.763706	0.230198
485.132489	0.235163
485.501213	0.236030
485.869879	0.234461
486.238487	0.237583
486.607036	0.235568
486.975527	0.239886
487.343959	0.235621
487.712333	0.235033
488.080648	0.236285
488.448905	0.235344
488.817104	0.236791
489.185244	0.231216
489.553326	0.228127
489.921350	0.217998
490.289315	0.200475
490.657222	0.195426
491.025070	0.196694
491.392861	0.198741
491.760593	0.204508
492.128267	0.210253
492.495883	0.215405
492.863440	0.221661
493.230939	0.228107
493.598380	0.229480
493.965763	0.231377
494.333088	0.234010
494.700354	0.235345
495.067563	0.234133
495.434713	0.237474
495.801805	0.235275
496.168839	0.236883
496.535815	0.238106
496.902733	0.237914
497.269593	0.239449
497.636395	0.237328
498.003139	0.237770
498.369825	0.240481
498.736453	0.236964
499.103023	0.238282
499.469535	0.237800
499.835989	0.238319
500.202385	0.238772
500.568723	0.242099
500.935003	0.237238
501.301226	0.241671
501.667390	0.236197
502.033497	0.233966
502.399546	0.237263
502.765537	0.238876
503.131470	0.237287
503.497345	0.233515
503.863163	0.242262
504.228923	0.235194
504.594625	0.234085
504.960269	0.239513
505.325856	0.234780
505.691385	0.238944
506.056856	0.235541
506.422270	0.235379
506.787625	0.237849
507.152924	0.235066
507.518164	0.235362
507.883347	0.237224
508.248472	0.238900
508.613540	0.234021
508.978550	0.236255
509.343503	0.237062
509.708398	0.234462
510.073236	0.232185
510.438016	0.232155
510.802738	0.233182
511.167403	0.232275
511.532010	0.233902
511.896561	0.229442
512.261053	0.228368
512.625488	0.230212
512.989866	0.230382
513.354186	0.231138
513.718449	0.232792
514.082655	0.229356
514.446803	0.231611
514.810894	0.229136
515.174927	0.231798
515.538904	0.231099
515.902822	0.227823
516.266684	0.230370
516.630488	0.231742
516.994235	0.230243
517.357925	0.229168
517.721558	0.227515
518.085133	0.227058
518.448651	0.227181
518.812112	0.229380
519.175516	0.229293
519.538863	0.226465
519.902152	0.228308
520.265385	0.225047
520.628560	0.227032
520.991678	0.227460
521.354739	0.226332
521.717743	0.227648
522.080690	0.227711
522.443580	0.225296
522.806413	0.226339
523.169189	0.225334
523.531908	0.224485
523.894569	0.227866
524.257174	0.227993
524.619722	0.225687
524.982213	0.226942
525.344647	0.225610
525.707025	0.226423
526.069345	0.224477
526.431608	0.226437
526.793815	0.224283
527.155964	0.228361
527.518057	0.227364
527.880093	0.228219
528.242072	0.226644
528.603995	0.228727
528.965860	0.230784
529.327669	0.229441
529.689421	0.230161
530.051117	0.231029
530.412755	0.228747
530.774337	0.231083
531.135862	0.231440
531.497331	0.230759
531.858743	0.233765
532.220098	0.230667
532.581396	0.232956
532.942638	0.233610
533.303824	0.234241
533.664953	0.234159
534.026025	0.235887
534.387040	0.233753
534.747999	0.233756
535.108902	0.232637
535.469748	0.237604
535.830537	0.235540
536.191270	0.235942
536.551947	0.235571
536.912567	0.235551
537.273131	0.237438
537.633638	0.237386
537.994089	0.237771
538.354483	0.238980
538.714821	0.235807
539.075103	0.235689
539.435328	0.236310
539.795497	0.240149
540.155609	0.236643
540.515665	0.234790
540.875665	0.240588
541.235609	0.239060
541.595496	0.239186
541.955328	0.235959
542.315102	0.238351
542.674821	0.239322
543.034483	0.239159
543.394090	0.238885
543.753640	0.241153
544.113134	0.236017
544.472571	0.239329
544.831953	0.236002
545.191278	0.240340
545.550548	0.239840
545.909761	0.236582
546.268918	0.237461
546.628019	0.235718
546.987064	0.238331
547.346053	0.240020
547.704986	0.238145
548.063863	0.238680
548.422684	0.238525
548.781449	0.240194
549.140158	0.237635
549.498811	0.240960
549.857408	0.243891
550.215949	0.238575
550.574434	0.241757
550.932864	0.239871
551.291237	0.238340
551.649555	0.239974
552.007817	0.239364
552.366022	0.240634
552.724173	0.240563
553.082267	0.241053
553.440305	0.237685
553.798288	0.242414
554.156215	0.238786
554.514086	0.239317
554.871902	0.242474
555.229661	0.241931
555.587365	0.242517
555.945014	0.245159
556.302606	0.241824
556.660143	0.244414
557.017625	0.240736
557.375050	0.242982
557.732421	0.240191
558.089735	0.242308
558.446994	0.242134
558.804197	0.241435
559.161345	0.241235
559.518437	0.244914
559.875474	0.242580
560.232455	0.241918
560.589381	0.243256
560.946251	0.243161
561.303065	0.240820
561.659825	0.242171
562.016528	0.243836
562.373177	0.246696
562.729770	0.243736
563.086307	0.245963
563.442789	0.243396
563.799216	0.246604
564.155587	0.245328
564.511904	0.246458
564.868164	0.246477
565.224370	0.246084
565.580520	0.248107
565.936615	0.247891
566.292654	0.250834
566.648638	0.248014
567.004567	0.249123
567.360441	0.249717
567.716260	0.251687
568.072023	0.249331
568.427732	0.250123
568.783385	0.252525
569.138982	0.250800
569.494525	0.250165
569.850013	0.253242
570.205445	0.251400
570.560823	0.254134
570.916145	0.255881
571.271412	0.254293
571.626625	0.255747
571.981782	0.255983
572.336884	0.257111
572.691931	0.256978
573.046923	0.257873
573.401860	0.259258
573.756743	0.260991
574.111570	0.259664
574.466342	0.260435
574.821059	0.259188
575.175722	0.262183
575.530330	0.262105
575.884882	0.262376
576.239380	0.264460
576.593823	0.264787
576.948211	0.264192
577.302544	0.267511
577.656823	0.267062
578.011047	0.267171
578.365216	0.267718
578.719330	0.269931
579.073389	0.269506
579.427394	0.270651
579.781344	0.271719
580.135239	0.273110
580.489080	0.272935
580.842866	0.275447
581.196597	0.275972
581.550273	0.274291
581.903895	0.275450
582.257463	0.273393
582.610975	0.276981
582.964434	0.276133
583.317837	0.278638
583.671186	0.279207
584.024481	0.279033
584.377721	0.281800
584.730906	0.282140
585.084037	0.281458
585.437113	0.283001
585.790135	0.282308
586.143103	0.285492
586.496016	0.286808
586.848874	0.284110
587.201679	0.284852
587.554428	0.288249
587.907124	0.287000
588.259765	0.287786
588.612352	0.288299
588.964884	0.291662
589.317362	0.291330
589.669786	0.291373
590.022155	0.290178
590.374470	0.289245
590.726731	0.291332
591.078937	0.295951
591.431090	0.292363
591.783188	0.296926
592.135232	0.297171
592.487222	0.297171
592.839157	0.295355
593.191038	0.297359
593.542866	0.299528
593.894639	0.302878
594.246358	0.300806
594.598022	0.300401
594.949633	0.304118
595.301190	0.304523
595.652692	0.304195
596.004141	0.300342
596.355535	0.308223
596.706876	0.308732
597.058162	0.310875
597.409395	0.308266
597.760573	0.306047
598.111698	0.308944
598.462768	0.309787
598.813785	0.310905
599.164748	0.312430
599.515657	0.312759
599.866511	0.315925
600.217312	0.311012
600.568060	0.316835
600.918753	0.312981
601.269392	0.313570
601.619978	0.316778
601.970510	0.314776
602.320988	0.314939
602.671412	0.312259
603.021783	0.314918
603.372100	0.316164
603.722363	0.316017
604.072572	0.317296
604.422728	0.316902
604.772830	0.318585
605.122878	0.318347
605.472872	0.318988
605.822813	0.317418
606.172701	0.319773
606.522534	0.317187
606.872314	0.317343
607.222041	0.317938
607.571714	0.316312
607.921333	0.317860
608.270899	0.317340
608.620411	0.314178
608.969870	0.317789
609.319276	0.318299
609.668627	0.318018
610.017926	0.316530
610.367171	0.315224
610.716362	0.316129
611.065500	0.316315
611.414585	0.315084
611.763616	0.315397
612.112594	0.316011
612.461518	0.315176
612.810389	0.313099
613.159207	0.315692
613.507971	0.317171
613.856682	0.312733
614.205340	0.314714
614.553945	0.311081
614.902496	0.314865
615.250994	0.313223
615.599439	0.313990
615.947830	0.313248
616.296169	0.314455
616.644454	0.313930
616.992686	0.314139
617.340864	0.311804
617.688990	0.315330
618.037063	0.311842
618.385082	0.313964
618.733048	0.310503
619.080961	0.313027
619.428821	0.312302
619.776628	0.312017
620.124382	0.314023
620.472083	0.314420
620.819731	0.313720
621.167326	0.317560
621.514868	0.317182
621.862357	0.321600
622.209793	0.321099
622.557176	0.323230
622.904506	0.324360
623.251783	0.326524
623.599007	0.328820
623.946179	0.328712
624.293297	0.330537
624.640363	0.333993
624.987376	0.334914
625.334336	0.337645
625.681243	0.340066
626.028097	0.340011
626.374899	0.341309
626.721647	0.341399
627.068343	0.344479
627.414987	0.346060
627.761577	0.347960
628.108115	0.346217
628.454600	0.351079
628.801032	0.348324
629.147412	0.351050
629.493739	0.350761
629.840014	0.354292
630.186236	0.352078
630.532405	0.357151
630.878521	0.354300
631.224585	0.357343
631.570597	0.360206
631.916556	0.358885
632.262462	0.358848
632.608316	0.360666
632.954117	0.361959
633.299866	0.363346
633.645562	0.363465
633.991206	0.367509
634.336797	0.370055
634.682336	0.372899
635.027823	0.374220
635.373257	0.374553
635.718639	0.378672
636.063968	0.377668
636.409245	0.383611
636.754470	0.383933
637.099642	0.386342
637.444762	0.389509
637.789829	0.388613
638.134845	0.392497
638.479808	0.393136
638.824719	0.392746
639.169577	0.396768
639.514383	0.396090
639.859137	0.399626
640.203839	0.399694
640.548489	0.400448
640.893086	0.402003
641.237632	0.403694
641.582125	0.401703
641.926566	0.403288
642.270955	0.403426
642.615292	0.403768
642.959576	0.403454
643.303809	0.403569
643.647990	0.403269
643.992118	0.403507
644.336195	0.407230
644.680219	0.405365
645.024192	0.406073
645.368112	0.399594
645.711981	0.398921
646.055797	0.394295
646.399562	0.396896
646.743274	0.388430
647.086935	0.386094
647.430544	0.385976
647.774101	0.385002
648.117606	0.384646
648.461059	0.384770
648.804460	0.387737
649.147810	0.392817
649.491108	0.394729
649.834354	0.395838
650.177548	0.401549
650.520690	0.406631
650.863781	0.408289
651.206820	0.407478
651.549807	0.412175
651.892742	0.415521
652.235626	0.415144
652.578458	0.416403
652.921238	0.422363
653.263967	0.420664
653.606644	0.424219
653.949269	0.423708
654.291843	0.427839
654.634365	0.424884
654.976836	0.428030
655.319255	0.427897
655.661622	0.429729
656.003938	0.429640
656.346203	0.432690
656.688416	0.430327
657.030577	0.433581
657.372687	0.435491
657.714746	0.436214
658.056753	0.433471
658.398708	0.437500
658.740612	0.438127
659.082465	0.434060
659.424266	0.435530
659.766016	0.434637
660.107715	0.437441
660.449362	0.436444
660.790958	0.436793
661.132503	0.437591
661.473996	0.434849
661.815438	0.436109
662.156829	0.436345
662.498168	0.436812
662.839456	0.438135
663.180693	0.435963
663.521879	0.436052
663.863013	0.436868
664.204097	0.435323
664.545129	0.432369
664.886110	0.432927
665.227040	0.429485
665.567918	0.432553
665.908746	0.430523
666.249522	0.430680
666.590248	0.430626
666.930922	0.429795
667.271545	0.428066
667.612118	0.428660
667.952639	0.430162
668.293109	0.428678
668.633528	0.431293
668.973896	0.431769
669.314213	0.432100
669.654480	0.433399
669.994695	0.433607
670.334859	0.434486
670.674973	0.434954
671.015035	0.434727
671.355047	0.434967
671.695008	0.435960
672.034918	0.437797
672.374777	0.437457
672.714585	0.438303
673.054342	0.438499
673.394049	0.438695
673.733705	0.435909
674.073310	0.437740
674.412864	0.440063
674.752368	0.440365
675.091820	0.440671
675.431223	0.445329
675.770574	0.445057
676.109875	0.448295
676.449125	0.448286
676.788324	0.449766
677.127473	0.456293
677.466571	0.455339
677.805619	0.457069
678.144616	0.458204
678.483562	0.459657
678.822458	0.462920
679.161303	0.464237
679.500098	0.463618
679.838842	0.465445
680.177535	0.465287
680.516179	0.463372
680.854771	0.462718
681.193314	0.456393
681.531805	0.447575
681.870247	0.435959
682.208638	0.428290
682.546978	0.427374
682.885268	0.429443
683.223508	0.435638
683.561697	0.439250
683.899836	0.441613
684.237925	0.445361
684.575963	0.447798
684.913951	0.451033
685.251889	0.446622
685.589776	0.448738
685.927614	0.450803
686.265401	0.445276
686.603137	0.446386
686.940824	0.440527
687.278460	0.438857
687.616046	0.438387
687.953582	0.433066
688.291068	0.434841
688.628504	0.430266
688.965889	0.432773
689.303224	0.436582
689.640510	0.440670
689.977745	0.446394
690.314930	0.454433
690.652065	0.458638
690.989150	0.466500
691.326185	0.472771
691.663170	0.477160
692.000105	0.484244
692.336990	0.491612
692.673825	0.494174
693.010610	0.500478
693.347345	0.506229
693.684030	0.507975
694.020665	0.511910
694.357251	0.521552
694.693786	0.521010
695.030272	0.524374
695.366707	0.528695
695.703093	0.532359
696.039429	0.529943
696.375716	0.531490
696.711952	0.533793
697.048139	0.535541
697.384276	0.538121
697.720363	0.536673
698.056400	0.534931
698.392388	0.540642
698.728326	0.544360
699.064214	0.546776
699.400053	0.547714
699.735842	0.551774
700.071581	0.554439
700.407270	0.557178
700.742910	0.559337
701.078501	0.565869
701.414042	0.566295
701.749533	0.569493
702.084974	0.578128
702.420366	0.570808
702.755709	0.578759
703.091002	0.586438
703.426246	0.578992
703.761440	0.584934
704.096584	0.590546
704.431679	0.587260
704.766725	0.589060
705.101721	0.591044
705.436668	0.586597
705.771565	0.594507
706.106413	0.590657
706.441212	0.585628
706.775961	0.584543
707.110661	0.586913
707.445311	0.583885
707.779913	0.580868
708.114465	0.579360
708.448967	0.576660
708.783421	0.568700
709.117825	0.562511
709.452180	0.562510
709.786485	0.556759
710.120742	0.546809
710.454949	0.548282
710.789107	0.540657
711.123216	0.532489
711.457275	0.533089
711.791286	0.524105
712.125247	0.523096
712.459159	0.533573
712.793023	0.526417
713.126837	0.530343
713.460602	0.531331
713.794318	0.540487
714.127985	0.539440
714.461602	0.549187
714.795171	0.552844
715.128691	0.560331
715.462162	0.567649
715.795584	0.572983
716.128957	0.576137
716.462281	0.582564
716.795556	0.586808
717.128782	0.590701
717.461960	0.600850
717.795088	0.599151
718.128167	0.606000
718.461198	0.613762
718.794180	0.614744
719.127113	0.617861
719.459997	0.621427
719.792833	0.627465
720.125619	0.628997
720.458357	0.634521
720.791046	0.634095
721.123686	0.637529
721.456278	0.645364
721.788821	0.642088
722.121315	0.645866
722.453761	0.649926
722.786158	0.648346
723.118506	0.644729
723.450805	0.652329
723.783056	0.648544
724.115259	0.645819
724.447412	0.644761
724.779518	0.646319
725.111574	0.645636
725.443582	0.641459
725.775542	0.642694
726.107453	0.635135
726.439315	0.634910
726.771129	0.633911
727.102895	0.627530
727.434612	0.620104
727.766281	0.617872
728.097901	0.617402
728.429473	0.616679
728.760996	0.615172
729.092471	0.615409
729.423897	0.619308
729.755276	0.618488
730.086606	0.618231
730.417887	0.612712
730.749120	0.603336
731.080305	0.594453
731.411442	0.590996
731.742530	0.595571
732.073570	0.594823
732.404562	0.587047
732.735506	0.588666
733.066401	0.592244
733.397249	0.602127
733.728048	0.613515
734.058798	0.626585
734.389501	0.636493
734.720156	0.646397
735.050762	0.654636
735.381320	0.655223
735.711831	0.663785
736.042293	0.670208
736.372707	0.664779
736.703073	0.670535
737.033391	0.672802
737.363661	0.668313
737.693883	0.664535
738.024056	0.662699
738.354182	0.664245
738.684260	0.652478
739.014290	0.648740
739.344272	0.649875
739.674207	0.643752
740.004093	0.643054
740.333931	0.642584
740.663722	0.643599
740.993464	0.643893
741.323159	0.647214
741.652806	0.652616
741.982405	0.657571
742.311956	0.662114
742.641460	0.664170
742.970915	0.667211
743.300323	0.675618
743.629683	0.681716
743.958996	0.684069
744.288260	0.688776
744.617477	0.694044
744.946647	0.695311
745.275768	0.700923
745.604842	0.700399
745.933869	0.709794
746.262847	0.710481
746.591778	0.704070
746.920662	0.710379
747.249498	0.717015
747.578286	0.707498
747.907027	0.705011
748.235720	0.705534
748.564365	0.700146
748.892963	0.700832
749.221514	0.702772
749.550017	0.708622
749.878473	0.708848
750.206881	0.714575
750.535242	0.715310
750.863555	0.715345
751.191821	0.716587
751.520039	0.719681
751.848210	0.724173
752.176334	0.717379
752.504411	0.716396
752.832440	0.724195
753.160421	0.728697
753.488356	0.726079
753.816243	0.723840
754.144082	0.732293
754.471875	0.736593
754.799620	0.730994
755.127318	0.733053
755.454969	0.733169
755.782572	0.731562
756.110129	0.736777
756.437638	0.739561
756.765100	0.736182
757.092515	0.733730
757.419882	0.732820
757.747203	0.739126
758.074477	0.737881
758.401703	0.735298
758.728882	0.729874
759.056014	0.728659
759.383099	0.728709
759.710138	0.728326
760.037129	0.725343
760.364073	0.719581
760.690970	0.721503
761.017820	0.727355
761.344623	0.723336
761.671379	0.714092
761.998088	0.702474
762.324751	0.679343
762.651366	0.637944
762.977935	0.571417
763.304456	0.519145
763.630931	0.509761
763.957359	0.548467
764.283740	0.593505
764.610074	0.620308
764.936362	0.652025
765.262602	0.677802
765.588796	0.699310
765.914943	0.717210
766.241044	0.735921
766.567097	0.741641
766.893104	0.751195
767.219064	0.757693
767.544978	0.764298
767.870845	0.776974
768.196665	0.780703
768.522438	0.780220
768.848165	0.781236
769.173846	0.789596
769.499479	0.794440
769.825066	0.797428
770.150607	0.802223
770.476101	0.797934
770.801548	0.798921
771.126949	0.810280
771.452303	0.814394
771.777611	0.812819
772.102872	0.811927
772.428087	0.817978
772.753256	0.821087
773.078378	0.822847
773.403453	0.832108
773.728482	0.837296
774.053465	0.830104
774.378401	0.832667
774.703291	0.842134
775.028135	0.841360
775.352932	0.843157
775.677683	0.846868
776.002388	0.847129
776.327046	0.845367
776.651658	0.849174
776.976224	0.851749
777.300743	0.852798
777.625216	0.854888
777.949643	0.856563
778.274024	0.856783
778.598359	0.858645
778.922647	0.857251
779.246889	0.857036
779.571086	0.861025
779.895236	0.864578
780.219339	0.861238
780.543397	0.857970
780.867409	0.856494
781.191374	0.858987
781.515294	0.859799
781.839167	0.858152
782.162995	0.862938
782.486776	0.860358
782.810511	0.860362
783.134201	0.864092
783.457844	0.862378
783.781441	0.863684
784.104993	0.869994
784.428498	0.870126
784.751958	0.865800
785.075372	0.868000
785.398739	0.872161
785.722061	0.869133
786.045337	0.864091
786.368568	0.869897
786.691752	0.871605
787.014891	0.857016
787.337983	0.847850
787.661030	0.841116
787.984031	0.823161
788.306987	0.811049
788.629897	0.813095
788.952760	0.817021
789.275579	0.821008
789.598351	0.836477
789.921078	0.848816
790.243759	0.851962
790.566395	0.856408
790.888984	0.864427
791.211529	0.869351
791.534027	0.871987
791.856480	0.873132
792.178888	0.880136
792.501249	0.880834
792.823566	0.881684
793.145836	0.882507
793.468062	0.885331
793.790241	0.884233
794.112375	0.883626
794.434464	0.878694
794.756507	0.878422
795.078505	0.876885
795.400457	0.872918
795.722364	0.859595
796.044226	0.853204
796.366042	0.852059
796.687812	0.855694
797.009538	0.851445
797.331218	0.855132
797.652852	0.860235
797.974442	0.864056
798.295986	0.863775
798.617484	0.867635
798.938938	0.870688
799.260346	0.876039
799.581709	0.878063
799.903026	0.880120
800.224299	0.879682
800.545526	0.884552
800.866708	0.889345
801.187845	0.892138
801.508936	0.891849
801.829983	0.889803
802.150984	0.892763
802.471940	0.896881
802.792851	0.896588
803.113717	0.898338
803.434538	0.895866
803.755314	0.898966
804.076045	0.900323
804.396731	0.899686
804.717372	0.899674
805.037967	0.901844
805.358518	0.899829
805.679024	0.896479
805.999485	0.897125
806.319901	0.896877
806.640272	0.898329
806.960598	0.896250
807.280879	0.892513
807.601115	0.892038
807.921306	0.895966
808.241453	0.895692
808.561554	0.894334
808.881611	0.893641
809.201623	0.896406
809.521590	0.897072
809.841513	0.896183
810.161390	0.895150
810.481223	0.898210
810.801011	0.901115
811.120755	0.901709
811.440453	0.901161
811.760107	0.900555
812.079716	0.901071
812.399281	0.903515
812.718801	0.907157
813.038276	0.906980
813.357707	0.905880
813.677093	0.903890
813.996434	0.906576
814.315731	0.908307
814.634983	0.909155
814.954191	0.908342
815.273354	0.905418
815.592473	0.901305
815.911547	0.901370
816.230577	0.899049
816.549562	0.896071
816.868502	0.897287
817.187399	0.893416
817.506250	0.887632
817.825058	0.889977
818.143821	0.886282
818.462539	0.881447
818.781213	0.873142
819.099843	0.862449
819.418429	0.846329
819.736970	0.829631
820.055466	0.809675
820.373919	0.783974
820.692327	0.751670
821.010691	0.716801
821.329011	0.639521
821.647286	0.524749
821.965517	0.411187
822.283704	0.368273
822.601847	0.369719
822.919945	0.405628
823.237999	0.439009
823.556010	0.485470
823.873976	0.541333
824.191897	0.592277
824.509775	0.634836
824.827609	0.679187
825.145398	0.702461
825.463144	0.705578
825.780845	0.687933
826.098502	0.669215
826.416116	0.623634
826.733685	0.579434
827.051210	0.571088
827.368692	0.586144
827.686129	0.623065
828.003522	0.675289
828.320872	0.722988
828.638177	0.767158
828.955439	0.800583
829.272656	0.821618
829.589830	0.838908
829.906960	0.854313
830.224046	0.867203
830.541088	0.876765
830.858086	0.881915
831.175041	0.887435
831.491952	0.886568
831.808819	0.883695
832.125642	0.876907
832.442421	0.861743
832.759157	0.840438
833.075849	0.794116
833.392497	0.731252
833.709101	0.690200
834.025662	0.699447
834.342179	0.730961
834.658653	0.769880
834.975083	0.806792
835.291469	0.832470
835.607811	0.854539
835.924110	0.870779
836.240366	0.888546
836.556578	0.901876
836.872746	0.908857
837.188871	0.913990
837.504952	0.920422
837.820990	0.923559
838.136984	0.927141
838.452935	0.930452
838.768842	0.931015
839.084706	0.924964
839.400526	0.898980
839.716303	0.859472
840.032037	0.836842
840.347727	0.840973
840.663373	0.858764
840.978977	0.880125
841.294537	0.901943
841.610054	0.918488
841.925527	0.925977
842.240957	0.931752
842.556344	0.939729
842.871687	0.946011
843.186987	0.949581
843.502244	0.950548
843.817458	0.951945
844.132629	0.955276
844.447756	0.960070
844.762840	0.960750
845.077881	0.959952
845.392879	0.959439
845.707833	0.962207
846.022745	0.964353
846.337613	0.964807
846.652438	0.965656
846.967221	0.964416
847.281960	0.965378
847.596656	0.967694
847.911309	0.965832
848.225919	0.968369
848.540485	0.969108
848.855009	0.969110
849.169490	0.968151
849.483928	0.968466
849.798323	0.969245
850.112675	0.969568
850.426984	0.969764
850.741251	0.969808
851.055474	0.970481
851.369654	0.967527
851.683792	0.969215
851.997887	0.969352
852.311938	0.971100
852.625947	0.969647
852.939914	0.968083
853.253837	0.968349
853.567718	0.971228
853.881555	0.970758
854.195350	0.968887
854.509103	0.970241
854.822812	0.969920
855.136479	0.970233
855.450103	0.969802
855.763685	0.968226
856.077224	0.968759
856.390720	0.970321
856.704173	0.970624
857.017584	0.968666
857.330953	0.966793
857.644278	0.967770
857.957561	0.968078
858.270802	0.968830
858.584000	0.968355
858.897155	0.967212
859.210268	0.966874
859.523339	0.968070
859.836367	0.969755
860.149352	0.970540
860.462295	0.968267
860.775195	0.969774
861.088054	0.969440
861.400869	0.969710
861.713642	0.971504
862.026373	0.969543
862.339062	0.970818
862.651708	0.967610
862.964312	0.968541
863.276873	0.969142
863.589392	0.968423
863.901869	0.965452
864.214303	0.965232
864.526696	0.963934
864.839045	0.964026
865.151353	0.961962
865.463619	0.964015
865.775842	0.962537
866.088023	0.963192
866.400162	0.962596
866.712258	0.962069
867.024313	0.963278
867.336325	0.963840
867.648296	0.964185
867.960224	0.962306
868.272110	0.962669
868.583954	0.963793
868.895755	0.963714
869.207515	0.961509
869.519233	0.958592
869.830909	0.961535
870.142542	0.963086
870.454134	0.960677
870.765684	0.961553
871.077191	0.957842
871.388657	0.959078
871.700081	0.958123
872.011463	0.958147
872.322803	0.959003
872.634101	0.957311
872.945357	0.955173
873.256571	0.953792
873.567744	0.953805
873.878874	0.953955
874.189963	0.951713
874.501010	0.952746
874.812015	0.948746
875.122979	0.951476
875.433900	0.954827
875.744780	0.953471
876.055618	0.951427
876.366415	0.949920
876.677169	0.950076
876.987882	0.950870
877.298554	0.950619
877.609183	0.947783
877.919771	0.945423
878.230317	0.942883
878.540822	0.940895
878.851285	0.934334
879.161707	0.927782
879.472087	0.915648
879.782425	0.899024
880.092722	0.865591
880.402977	0.812881
880.713191	0.753118
881.023363	0.694150
881.333494	0.659866
881.643583	0.632430
881.953631	0.632818
882.263637	0.661486
882.573602	0.700470
882.883526	0.726135
883.193408	0.749230
883.503248	0.772118
883.813048	0.798607
884.122806	0.828717
884.432522	0.851696
884.742197	0.870867
885.051831	0.881396
885.361424	0.891772
885.670975	0.904428
885.980485	0.914870
886.289954	0.920088
886.599382	0.924735
886.908768	0.928075
887.218113	0.934230
887.527417	0.940252
887.836680	0.942853
888.145901	0.943492
888.455082	0.946164
888.764221	0.950650
889.073319	0.952747
889.382376	0.953421
889.691392	0.952940
890.000366	0.952527
890.309300	0.954093
890.618193	0.952678
890.927044	0.951946
891.235855	0.951520
891.544625	0.951492
891.853353	0.953004
892.162041	0.950302
892.470687	0.942762
892.779293	0.938697
893.087858	0.934843
893.396381	0.926657
893.704864	0.913444
894.013306	0.890319
894.321707	0.863180
894.630068	0.849031
894.938387	0.844304
895.246665	0.845460
895.554903	0.857722
895.863100	0.871735
896.171256	0.887548
896.479371	0.906827
896.787446	0.920582
897.095480	0.926034
897.403473	0.929374
897.711425	0.931809
898.019336	0.940740
898.327207	0.943205
898.635038	0.944584
898.942827	0.945134
899.250576	0.949347
899.558284	0.953377
899.865952	0.954063
900.173579	0.955783
900.481165	0.955260
900.788711	0.960318
901.096216	0.960956
901.403681	0.960893
901.711105	0.962348
902.018489	0.963693
902.325832	0.961970
902.633135	0.961815
902.940397	0.956461
903.247619	0.944161
903.554800	0.917984
903.861941	0.880034
904.169041	0.844280
904.476101	0.827987
904.783121	0.827956
905.090100	0.844115
905.397039	0.864993
905.703938	0.887114
906.010796	0.906348
906.317614	0.922948
906.624391	0.934643
906.931129	0.944218
907.237826	0.951877
907.544483	0.959688
907.851099	0.962833
908.157675	0.968198
908.464211	0.969993
908.770707	0.972102
909.077163	0.974837
909.383578	0.974358
909.689954	0.975888
909.996289	0.975580
910.302584	0.977605
910.608839	0.979312
910.915054	0.977862
911.221229	0.977733
911.527363	0.977636
911.833458	0.977144
912.139513	0.977109
912.445527	0.975807
912.751502	0.974462
913.057436	0.972535
913.363331	0.968984
913.669186	0.966283
913.975000	0.961948
914.280775	0.956647
914.586510	0.948795
914.892205	0.935659
915.197859	0.914487
915.503475	0.886950
915.809050	0.867639
916.114585	0.862142
916.420081	0.858917
916.725536	0.856512
917.030952	0.865249
917.336328	0.876863
917.641665	0.891596
917.946961	0.907071
918.252218	0.919498
918.557435	0.928386
918.862612	0.936785
919.167750	0.943443
919.472848	0.947664
919.777906	0.953426
920.082925	0.958235
920.387904	0.961557
920.692843	0.963069
920.997743	0.963853
921.302603	0.967469
921.607423	0.969298
921.912204	0.972489
922.216946	0.971931
922.521647	0.973287
922.826310	0.975174
923.130932	0.976186
923.435516	0.978218
923.740059	0.979061
924.044564	0.977878
924.349028	0.981214
924.653454	0.983199
924.957840	0.984380
925.262186	0.984535
925.566493	0.983875
925.870761	0.984676
926.174989	0.987035
926.479178	0.987747
926.783328	0.988718
927.087438	0.988219
927.391509	0.988183
927.695541	0.991389
927.999533	0.989606
928.303486	0.989925
928.607400	0.991983
928.911275	0.990158
929.215110	0.989757
929.518906	0.989556
929.822663	0.990232
930.126381	0.990366
930.430060	0.989123
930.733699	0.989683
931.037299	0.988941
931.340861	0.991056
931.644383	0.991152
931.947866	0.989500
932.251309	0.990250
932.554714	0.990014
932.858080	0.990257
933.161407	0.990201
933.464694	0.991676
933.767943	0.989834
934.071153	0.991261
934.374323	0.991921
934.677455	0.990713
934.980548	0.992283
935.283602	0.990317
935.586617	0.990429
935.889593	0.991729
936.192530	0.990353
936.495428	0.990184
936.798287	0.989499
937.101108	0.990191
937.403890	0.989115
937.706632	0.989132
938.009336	0.986768
938.312002	0.985599
938.614628	0.985072
938.917216	0.983029
939.219765	0.982227
939.522275	0.983233
939.824747	0.983165
940.127179	0.983660
940.429573	0.985384
940.731929	0.984138
941.034246	0.985302
941.336524	0.985769
941.638763	0.986543
941.940964	0.986344
942.243126	0.986434
942.545250	0.987141
942.847335	0.988053
943.149381	0.988689
943.451389	0.989144
943.753359	0.988927
944.055290	0.991423
944.357182	0.990439
944.659036	0.988687
944.960851	0.989966
945.262628	0.989482
945.564367	0.990605
945.866067	0.990665
946.167729	0.990758
946.469352	0.989973
946.770937	0.989106
947.072484	0.990669
947.373992	0.991300
947.675462	0.990709
947.976893	0.990045
948.278286	0.989721
948.579641	0.991069
948.880958	0.990506
949.182236	0.991238
949.483476	0.991064
949.784678	0.990047
950.085841	0.991610
950.386967	0.989757
950.688054	0.991077
950.989103	0.990641
951.290114	0.989307
951.591087	0.990171
951.892021	0.989321
952.192917	0.989469
952.493776	0.988792
952.794596	0.988645
953.095378	0.987545
953.396122	0.988412
953.696828	0.986319
953.997496	0.990368
954.298126	0.991581
954.598718	0.990843
954.899272	0.991895
955.199788	0.989924
955.500266	0.992030
955.800706	0.992452
956.101108	0.993926
956.401472	0.993197
956.701798	0.995062
957.002087	0.994340
957.302337	0.993740
957.602550	0.994734
957.902724	0.993984
958.202861	0.995263
958.502960	0.995045
958.803022	0.993498
959.103045	0.995640
959.403031	0.994964
959.702979	0.995156
960.002889	0.996638
960.302762	0.994662
960.602596	0.995988
960.902393	0.996453
961.202153	0.997170
961.501875	0.997037
961.801559	0.995191
962.101205	0.996099
962.400814	0.995978
962.700385	0.996082
962.999918	0.996473
963.299414	0.995483
963.598873	0.995711
963.898293	0.997211
964.197677	0.995561
964.497022	0.995869
964.796331	0.997049
965.095601	0.996914
965.394835	0.996714
965.694030	0.995987
965.993189	0.996252
966.292309	0.996061
966.591393	0.998032
966.890439	0.996657
967.189447	0.997255
967.488419	0.997090
967.787353	0.995481
968.086249	0.996785
968.385108	0.997873
968.683930	0.997612
968.982714	0.996311
969.281462	0.997051
969.580172	0.996876
969.878844	0.996402
970.177480	0.998070
970.476078	0.996503
970.774639	0.996567
971.073162	0.997272
971.371649	0.996501
971.670098	0.995885
971.968510	0.997192
972.266885	0.994961
972.565223	0.996136
972.863524	0.995122
973.161788	0.996102
973.460014	0.996853
973.758204	0.996060
974.056356	0.996638
974.354471	0.994064
974.652550	0.997082
974.950591	0.996755
975.248595	0.996125
975.546563	0.995998
975.844493	0.997811
976.142386	0.996336
976.440243	0.997553
976.738062	0.996152
977.035845	0.997724
977.333590	0.997038
977.631299	0.997243
977.928971	0.995477
978.226606	0.997420
978.524204	0.996593
978.821765	0.998219
979.119290	0.996955
979.416777	0.997143
979.714228	0.997091
980.011642	0.996935
980.309020	0.997004
980.606360	0.997326
980.903664	0.997867
981.200931	0.995717
981.498162	0.994331
981.795356	0.994485
982.092513	0.994103
982.389633	0.994529
982.686717	0.991375
982.983764	0.991456
983.280775	0.990100
983.577749	0.990982
983.874686	0.991432
984.171587	0.991358
984.468451	0.994274
984.765279	0.994335
985.062070	0.994909
985.358824	0.994811
985.655543	0.994659
985.952224	0.996617
986.248869	0.996447
986.545478	0.996780
986.842050	0.998431
987.138586	0.995840
987.435086	0.997865
987.731549	0.998853
988.027975	0.996981
988.324366	0.997629
988.620719	0.995847
988.917037	0.996670
989.213318	0.998211
989.509563	0.997992
989.805772	0.998630
990.101944	0.999231
990.398080	0.997688
990.694180	0.997655
990.990244	0.997879
991.286271	0.997593
991.582262	0.997295
991.878217	0.998313
992.174136	0.999625
992.470019	0.998305
992.765865	0.997739
993.061676	0.997556
993.357450	0.997562
993.653188	0.997247
993.948890	0.997543
994.244556	0.998211
994.540186	0.996684
994.835780	0.996812
995.131337	0.997088
995.426859	0.996259
995.722345	0.997496
996.017795	0.996954
996.313208	0.995893
996.608586	0.995115
996.903928	0.995825
997.199234	0.995817
997.494504	0.996172
997.789738	0.997781
998.084936	0.995842
998.380099	0.998114
998.675225	0.998528
998.970316	0.997840
999.265371	0.998655
999.560390	0.997714
999.855373	0.999149
1000.150320	0.997378
1000.445232	0.998585
1000.740108	0.997473
1001.034948	0.997644
1001.329752	0.998985
1001.624521	0.999952
1001.919254	0.997823
1002.213951	0.998200
1002.508613	0.996706
1002.803239	0.998576
1003.097829	0.998239
1003.392384	0.998729
1003.686903	0.998646
1003.981386	0.997700
1004.275834	0.998829
1004.570246	0.997992
1004.864623	0.998038
1005.158964	0.999716
1005.453270	0.998641
1005.747540	0.997606
1006.041775	0.997438
1006.335974	1.000079
1006.630138	0.999103
1006.924266	0.999995
1007.218359	1.001186
1007.512416	0.999477
1007.806438	1.000515
1008.100425	0.999755
1008.394376	0.999599
1008.688292	0.998145
1008.982172	1.000640
1009.276017	0.999340
1009.569827	0.997596
1009.863602	0.998988
1010.157341	0.999879
1010.451045	0.999494
1010.744714	0.998317
1011.038347	0.998360
1011.331945	0.998033
1011.625508	0.998212
1011.919036	0.997091
1012.212528	0.998534
1012.505986	0.997442
1012.799408	0.997476
1013.092795	0.999466
1013.386147	0.998337
1013.679464	1.000107
1013.972745	0.998043
1014.265992	0.997541
1014.559204	0.999308
1014.852380	0.998382
1015.145521	0.998741
1015.438628	0.998946
1015.731699	0.998055
1016.024736	0.998734
1016.317737	0.999610
1016.610703	0.998626
1016.903635	0.999721
1017.196531	0.999565
1017.489393	0.999718
1017.782219	0.999413
1018.075011	0.999398
1018.367768	0.998794
1018.660490	1.000052
1018.953177	1.000052
1019.245829	1.000052
