Dividing Wavelength (nm)	Counts (n)	Blue Motor Position (mm): 0.000000	Red Motor Position (mm): 36.200000	
326.493990	1.001605
326.888308	1.001605
327.282561	1.001605
327.676750	1.000935
328.070874	0.999239
328.464933	1.000967
328.858929	0.998739
329.252859	1.000190
329.646726	0.999699
330.040528	1.000938
330.434265	0.999177
330.827938	1.000475
331.221547	1.000613
331.615091	0.999800
332.008571	1.000204
332.401986	0.998868
332.795338	1.000009
333.188625	0.998487
333.581847	1.000487
333.975006	0.999697
334.368100	0.999012
334.761129	0.999389
335.154095	1.001609
335.546996	0.998911
335.939833	0.995627
336.332606	0.995754
336.725315	0.997796
337.117960	0.998295
337.510540	0.996704
337.903056	0.997201
338.295508	0.995726
338.687896	0.997286
339.080220	0.996540
339.472480	0.997547
339.864676	0.996400
340.256807	0.996338
340.648875	0.998320
341.040879	0.997667
341.432818	0.997513
341.824694	0.997129
342.216506	0.998191
342.608253	0.997108
342.999937	0.995551
343.391557	0.996298
343.783113	0.997242
344.174605	0.997517
344.566033	0.997687
344.957397	0.996395
345.348697	0.996676
345.739934	0.996798
346.131106	0.997213
346.522215	0.997036
346.913260	0.997134
347.304241	0.996629
347.695159	0.996463
348.086012	0.995775
348.476802	0.996166
348.867528	0.997617
349.258191	0.996072
349.648789	0.997284
350.039324	0.995790
350.429796	0.997854
350.820203	0.997145
351.210548	0.997570
351.600828	0.995682
351.991045	0.997238
352.381198	0.996786
352.771288	0.997505
353.161314	0.996672
353.551276	0.997389
353.941175	0.996426
354.331010	0.995657
354.720782	0.996949
355.110490	0.996078
355.500135	0.997983
355.889717	0.996416
356.279235	0.996808
356.668689	0.996102
357.058080	0.997029
357.447408	0.999310
357.836672	0.996902
358.225873	0.998099
358.615010	0.997294
359.004084	0.998996
359.393095	0.997227
359.782043	0.997332
360.170927	0.998176
360.559748	0.998165
360.948505	0.996231
361.337199	0.996180
361.725830	0.997066
362.114398	0.996016
362.502903	0.996860
362.891344	0.997924
363.279722	0.996509
363.668037	0.997448
364.056289	0.996923
364.444478	0.998070
364.832603	0.996423
365.220665	0.997271
365.608665	0.996916
365.996601	0.996641
366.384474	0.998035
366.772284	0.997631
367.160031	0.995622
367.547715	0.995929
367.935336	0.996086
368.322893	0.996194
368.710388	0.996047
369.097820	0.997854
369.485189	0.997013
369.872495	0.995956
370.259738	0.995681
370.646918	0.997928
371.034035	0.996486
371.421090	0.996822
371.808081	0.997265
372.195010	0.997716
372.581875	0.997251
372.968678	0.996213
373.355418	0.997255
373.742096	0.997214
374.128710	0.997593
374.515262	0.995884
374.901751	0.997595
375.288177	0.996028
375.674540	0.997802
376.060841	0.996587
376.447079	0.997648
376.833254	0.998510
377.219367	0.997430
377.605417	0.997597
377.991404	0.997025
378.377329	0.996260
378.763191	0.996691
379.148991	0.997960
379.534727	0.998507
379.920402	0.997605
380.306013	0.997747
380.691563	0.998107
381.077049	0.998259
381.462474	0.998193
381.847835	0.998020
382.233134	0.997846
382.618371	0.997472
383.003545	0.997339
383.388657	0.996488
383.773706	0.998244
384.158693	0.996917
384.543618	0.997402
384.928480	0.998119
385.313280	0.997199
385.698017	0.999447
386.082692	0.998285
386.467305	0.998218
386.851856	0.998004
387.236344	0.996477
387.620770	0.996921
388.005133	0.999249
388.389435	0.999704
388.773674	0.998955
389.157851	0.997504
389.541965	0.998298
389.926018	0.997960
390.310008	0.998501
390.693936	0.998127
391.077802	0.998417
391.461606	0.997523
391.845348	0.998438
392.229027	0.998640
392.612645	0.999103
392.996200	0.999898
393.379694	0.998088
393.763125	0.999185
394.146494	0.998452
394.529801	0.998140
394.913047	0.998889
395.296230	0.997508
395.679351	0.998236
396.062410	0.997547
396.445408	0.998615
396.828343	0.997343
397.211217	0.997922
397.594028	0.998942
397.976778	0.998663
398.359466	0.998091
398.742092	0.998427
399.124656	0.997572
399.507158	0.997765
399.889598	0.998310
400.271977	0.998492
400.654294	0.998267
401.036549	0.998352
401.418742	0.998842
401.800874	0.997723
402.182944	0.998177
402.564952	0.996885
402.946898	0.998496
403.328783	0.998935
403.710606	0.998047
404.092367	0.998731
404.474067	0.998292
404.855705	0.998095
405.237282	0.998318
405.618797	0.998270
406.000250	0.997855
406.381642	0.998662
406.762972	0.998432
407.144240	0.998999
407.525447	0.998355
407.906593	0.998426
408.287677	0.999024
408.668700	0.998983
409.049661	0.997284
409.430560	0.998031
409.811399	0.997774
410.192176	0.998148
410.572891	0.998937
410.953545	0.998002
411.334138	0.997973
411.714669	0.999606
412.095139	0.998190
412.475547	0.999402
412.855894	0.998434
413.236180	0.998838
413.616405	0.998369
413.996568	0.998210
414.376670	0.998472
414.756711	0.998225
415.136691	0.998414
415.516609	0.998707
415.896466	0.998482
416.276262	0.997237
416.655997	0.999060
417.035670	0.997689
417.415283	0.999193
417.794834	0.998985
418.174324	0.998569
418.553753	0.999127
418.933121	0.998348
419.312428	0.998285
419.691674	0.998382
420.070859	0.998043
420.449983	0.998924
420.829045	0.999082
421.208047	0.998969
421.586988	0.999367
421.965867	0.999036
422.344686	0.999071
422.723444	0.999011
423.102141	0.998703
423.480777	0.998634
423.859352	0.998563
424.237866	0.997973
424.616319	0.998551
424.994712	0.998538
425.373044	0.998951
425.751314	0.998649
426.129524	0.998220
426.507673	0.999584
426.885762	0.999677
427.263789	0.999258
427.641756	0.998747
428.019662	0.999902
428.397508	0.998892
428.775292	0.998018
429.153016	0.998484
429.530679	0.998557
429.908282	0.999089
430.285824	0.998428
430.663305	0.997927
431.040726	0.998855
431.418086	0.999124
431.795385	0.999702
432.172624	0.998303
432.549802	0.999960
432.926920	0.999704
433.303977	0.997795
433.680974	0.998975
434.057910	0.999072
434.434786	0.998860
434.811601	0.998880
435.188355	0.999081
435.565050	0.998432
435.941683	0.998443
436.318257	1.000349
436.694770	0.998528
437.071222	0.999434
437.447614	0.998733
437.823946	0.998680
438.200218	0.998790
438.576429	0.998653
438.952580	0.998975
439.328670	0.998631
439.704700	0.999239
440.080670	0.999136
440.456580	0.998833
440.832429	0.998237
441.208218	0.999107
441.583947	0.998703
441.959616	0.999128
442.335224	0.998294
442.710773	0.999244
443.086261	0.998737
443.461689	0.999527
443.837057	0.998729
444.212365	0.999258
444.587612	0.998585
444.962800	0.998264
445.337927	0.999148
445.712995	0.998796
446.088002	0.999244
446.462949	0.999605
446.837837	0.999580
447.212664	0.999836
447.587431	0.999347
447.962139	0.998509
448.336786	0.999498
448.711374	0.998920
449.085901	0.998400
449.460369	0.999286
449.834776	0.998522
450.209124	0.999808
450.583412	0.999126
450.957640	0.998527
451.331808	0.998664
451.705917	0.998663
452.079965	0.998568
452.453954	0.998549
452.827883	0.999110
453.201752	0.998742
453.575562	0.999700
453.949311	0.999347
454.323001	0.998559
454.696632	0.999105
455.070202	0.999108
455.443713	0.998425
455.817164	0.999637
456.190556	0.999653
456.563888	0.999093
456.937160	0.999853
457.310373	0.998050
457.683526	0.999168
458.056619	0.998938
458.429653	0.999394
458.802628	0.998772
459.175542	0.999102
459.548398	0.998640
459.921194	0.998530
460.293930	0.999189
460.666607	0.998359
461.039224	0.997754
461.411782	0.998698
461.784280	0.998192
462.156719	0.999199
462.529099	0.998784
462.901419	0.999458
463.273680	0.998500
463.645882	0.999429
464.018024	0.998589
464.390106	0.999251
464.762130	0.999022
465.134094	0.999122
465.505999	0.999388
465.877845	0.999060
466.249631	0.999303
466.621358	0.998617
466.993026	0.998404
467.364634	0.998783
467.736184	0.999592
468.107674	0.999160
468.479105	0.998590
468.850477	0.999242
469.221790	0.999386
469.593043	0.999571
469.964238	0.999992
470.335373	0.998895
470.706449	0.999412
471.077467	1.000075
471.448425	0.999320
471.819324	0.999684
472.190164	0.998848
472.560945	0.999083
472.931667	0.998676
473.302330	0.998761
473.672934	0.999162
474.043479	0.999549
474.413965	0.999037
474.784393	0.999929
475.154761	0.999272
475.525070	0.998108
475.895321	0.999535
476.265513	0.998468
476.635645	0.998992
477.005719	0.999468
477.375734	0.998689
477.745691	0.998778
478.115588	0.999414
478.485427	0.999165
478.855207	0.999018
479.224928	0.999334
479.594591	0.998890
479.964194	0.999331
480.333739	0.999008
480.703226	0.999294
481.072653	0.999530
481.442022	0.999271
481.811333	0.998597
482.180584	0.999354
482.549777	0.998468
482.918912	0.998916
483.287988	0.999097
483.657005	0.998626
484.025964	0.999637
484.394864	0.999609
484.763706	0.999526
485.132489	0.999302
485.501213	0.998913
485.869879	0.999455
486.238487	0.999991
486.607036	0.999518
486.975527	0.998537
487.343959	0.998803
487.712333	0.998443
488.080648	0.999311
488.448905	0.999540
488.817104	0.998905
489.185244	0.999107
489.553326	0.999493
489.921350	0.998723
490.289315	0.999211
490.657222	0.999237
491.025070	0.999362
491.392861	0.999490
491.760593	0.999156
492.128267	0.999104
492.495883	0.999011
492.863440	0.999075
493.230939	0.998855
493.598380	0.998409
493.965763	0.998575
494.333088	0.998848
494.700354	0.998848
495.067563	0.998669
495.434713	0.998442
495.801805	0.999322
496.168839	0.998849
496.535815	0.998366
496.902733	0.998358
497.269593	0.998539
497.636395	0.999099
498.003139	0.998502
498.369825	0.999253
498.736453	0.998877
499.103023	0.997630
499.469535	0.997986
499.835989	0.998184
500.202385	0.998758
500.568723	0.998341
500.935003	0.998873
501.301226	0.998666
501.667390	0.998365
502.033497	0.998601
502.399546	0.999119
502.765537	0.998243
503.131470	0.998227
503.497345	0.998407
503.863163	0.999037
504.228923	0.998215
504.594625	0.998227
504.960269	0.998477
505.325856	0.998647
505.691385	0.998045
506.056856	0.998625
506.422270	0.998356
506.787625	0.998157
507.152924	0.997976
507.518164	0.997690
507.883347	0.998136
508.248472	0.997429
508.613540	0.998163
508.978550	0.997962
509.343503	0.997274
509.708398	0.997567
510.073236	0.997651
510.438016	0.997668
510.802738	0.997521
511.167403	0.997846
511.532010	0.997857
511.896561	0.997229
512.261053	0.998271
512.625488	0.997146
512.989866	0.997124
513.354186	0.996630
513.718449	0.995701
514.082655	0.996382
514.446803	0.996328
514.810894	0.996272
515.174927	0.996211
515.538904	0.995542
515.902822	0.996046
516.266684	0.995674
516.630488	0.995638
516.994235	0.994902
517.357925	0.994378
517.721558	0.994600
518.085133	0.993583
518.448651	0.994844
518.812112	0.993511
519.175516	0.992926
519.538863	0.993237
519.902152	0.992145
520.265385	0.992250
520.628560	0.991601
520.991678	0.991340
521.354739	0.991395
521.717743	0.990683
522.080690	0.990894
522.443580	0.989403
522.806413	0.989166
523.169189	0.988005
523.531908	0.987354
523.894569	0.987174
524.257174	0.987108
524.619722	0.986248
524.982213	0.985892
525.344647	0.984925
525.707025	0.983950
526.069345	0.983198
526.431608	0.982267
526.793815	0.982593
527.155964	0.981389
527.518057	0.981049
527.880093	0.979952
528.242072	0.979329
528.603995	0.977470
528.965860	0.977560
529.327669	0.976274
529.689421	0.974946
530.051117	0.974444
530.412755	0.972532
530.774337	0.971961
531.135862	0.970041
531.497331	0.969893
531.858743	0.967926
532.220098	0.967253
532.581396	0.965758
532.942638	0.964592
533.303824	0.963783
533.664953	0.961352
534.026025	0.959602
534.387040	0.957923
534.747999	0.957101
535.108902	0.955346
535.469748	0.953852
535.830537	0.952010
536.191270	0.951273
536.551947	0.948674
536.912567	0.946566
537.273131	0.945959
537.633638	0.942280
537.994089	0.941035
538.354483	0.939437
538.714821	0.938074
539.075103	0.935415
539.435328	0.933356
539.795497	0.931744
540.155609	0.928760
540.515665	0.926418
540.875665	0.924257
541.235609	0.922017
541.595496	0.919617
541.955328	0.915906
542.315102	0.915377
542.674821	0.911961
543.034483	0.909359
543.394090	0.906082
543.753640	0.904260
544.113134	0.900210
544.472571	0.898682
544.831953	0.895608
545.191278	0.892613
545.550548	0.890233
545.909761	0.886152
546.268918	0.883227
546.628019	0.881118
546.987064	0.876811
547.346053	0.875384
547.704986	0.871030
548.063863	0.868125
548.422684	0.865530
548.781449	0.862444
549.140158	0.857748
549.498811	0.855379
549.857408	0.853034
550.215949	0.847645
550.574434	0.844903
550.932864	0.840454
551.291237	0.837617
551.649555	0.832722
552.007817	0.829703
552.366022	0.826477
552.724173	0.823254
553.082267	0.820169
553.440305	0.813756
553.798288	0.813241
554.156215	0.806956
554.514086	0.803490
554.871902	0.800880
555.229661	0.796134
555.587365	0.792540
555.945014	0.790845
556.302606	0.783632
556.660143	0.782700
557.017625	0.775372
557.375050	0.773226
557.732421	0.768329
558.089735	0.764515
558.446994	0.761715
558.804197	0.757027
559.161345	0.752801
559.518437	0.751600
559.875474	0.744608
560.232455	0.739646
560.589381	0.737966
560.946251	0.730818
561.303065	0.727921
561.659825	0.723310
562.016528	0.719810
562.373177	0.717818
562.729770	0.710510
563.086307	0.708230
563.442789	0.703269
563.799216	0.698467
564.155587	0.693998
564.511904	0.690266
564.868164	0.686074
565.224370	0.682629
565.580520	0.677786
565.936615	0.675031
566.292654	0.670756
566.648638	0.665940
567.004567	0.661608
567.360441	0.657903
567.716260	0.654399
568.072023	0.649683
568.427732	0.644741
568.783385	0.644281
569.138982	0.636740
569.494525	0.633019
569.850013	0.630153
570.205445	0.624322
570.560823	0.623308
570.916145	0.618670
571.271412	0.613736
571.626625	0.610276
571.981782	0.606238
572.336884	0.602882
572.691931	0.599485
573.046923	0.594743
573.401860	0.591696
573.756743	0.588204
574.111570	0.583621
574.466342	0.580901
574.821059	0.576102
575.175722	0.573725
575.530330	0.568919
575.884882	0.565633
576.239380	0.562650
576.593823	0.558773
576.948211	0.554519
577.302544	0.553852
577.656823	0.548353
578.011047	0.545405
578.365216	0.541310
578.719330	0.539365
579.073389	0.535039
579.427394	0.533050
579.781344	0.530235
580.135239	0.527275
580.489080	0.523650
580.842866	0.521346
581.196597	0.517904
581.550273	0.513661
581.903895	0.510687
582.257463	0.506694
582.610975	0.505229
582.964434	0.502244
583.317837	0.499993
583.671186	0.497847
584.024481	0.493856
584.377721	0.493014
584.730906	0.490367
585.084037	0.485467
585.437113	0.484759
585.790135	0.480249
586.143103	0.479475
586.496016	0.478048
586.848874	0.472582
587.201679	0.470403
587.554428	0.469410
587.907124	0.465247
588.259765	0.463775
588.612352	0.460727
588.964884	0.461346
589.317362	0.457866
589.669786	0.455261
590.022155	0.451693
590.374470	0.446935
590.726731	0.446823
591.078937	0.447119
591.431090	0.440954
591.783188	0.442486
592.135232	0.439127
592.487222	0.437722
592.839157	0.432744
593.191038	0.432344
593.542866	0.431775
593.894639	0.432021
594.246358	0.427773
594.598022	0.424597
594.949633	0.425720
595.301190	0.424180
595.652692	0.420929
596.004141	0.414975
596.355535	0.419850
596.706876	0.418151
597.058162	0.418327
597.409395	0.413638
597.760573	0.409402
598.111698	0.410340
598.462768	0.408239
598.813785	0.408044
599.164748	0.406211
599.515657	0.405162
599.866511	0.405685
600.217312	0.399743
600.568060	0.402833
600.918753	0.397854
601.269392	0.396746
601.619978	0.397959
601.970510	0.394378
602.320988	0.393051
602.671412	0.388775
603.021783	0.389861
603.372100	0.389917
603.722363	0.386985
604.072572	0.387063
604.422728	0.384997
604.772830	0.385530
605.122878	0.383411
605.472872	0.382437
605.822813	0.379286
606.172701	0.380706
606.522534	0.376638
606.872314	0.375481
607.222041	0.374743
607.571714	0.371825
607.921333	0.372318
608.270899	0.370560
608.620411	0.366571
608.969870	0.368771
609.319276	0.368048
609.668627	0.366445
610.017926	0.364296
610.367171	0.361883
610.716362	0.361923
611.065500	0.360962
611.414585	0.358389
611.763616	0.358470
612.112594	0.357565
612.461518	0.356113
612.810389	0.353352
613.159207	0.354488
613.507971	0.355661
613.856682	0.350441
614.205340	0.351434
614.553945	0.347443
614.902496	0.350566
615.250994	0.347450
615.599439	0.348007
615.947830	0.346322
616.296169	0.346900
616.644454	0.345546
616.992686	0.345429
617.340864	0.342257
617.688990	0.345386
618.037063	0.341600
618.385082	0.342942
618.733048	0.339353
619.080961	0.340805
619.428821	0.339580
619.776628	0.338660
620.124382	0.340211
620.472083	0.339386
620.819731	0.338493
621.167326	0.341438
621.514868	0.341169
621.862357	0.344315
622.209793	0.343470
622.557176	0.344648
622.904506	0.345097
623.251783	0.347426
623.599007	0.349139
623.946179	0.348020
624.293297	0.349111
624.640363	0.352482
624.987376	0.353001
625.334336	0.355090
625.681243	0.356651
626.028097	0.356591
626.374899	0.357703
626.721647	0.357035
627.068343	0.360764
627.414987	0.361003
627.761577	0.362870
628.108115	0.360875
628.454600	0.365670
628.801032	0.362281
629.147412	0.364822
629.493739	0.364035
629.840014	0.367335
630.186236	0.364563
630.532405	0.369964
630.878521	0.367186
631.224585	0.369162
631.570597	0.372775
631.916556	0.370752
632.262462	0.370973
632.608316	0.373109
632.954117	0.373684
633.299866	0.374508
633.645562	0.374110
633.991206	0.378374
634.336797	0.380856
634.682336	0.382793
635.027823	0.384057
635.373257	0.384602
635.718639	0.388117
636.063968	0.387014
636.409245	0.393016
636.754470	0.393236
637.099642	0.395593
637.444762	0.398054
637.789829	0.397357
638.134845	0.400780
638.479808	0.401793
638.824719	0.400897
639.169577	0.404836
639.514383	0.403862
639.859137	0.408300
640.203839	0.408074
640.548489	0.408442
640.893086	0.409235
641.237632	0.410692
641.582125	0.409209
641.926566	0.410485
642.270955	0.410641
642.615292	0.411495
642.959576	0.409923
643.303809	0.410881
643.647990	0.410008
643.992118	0.411028
644.336195	0.414033
644.680219	0.412210
645.024192	0.412911
645.368112	0.406576
645.711981	0.405051
646.055797	0.401118
646.399562	0.403293
646.743274	0.395285
647.086935	0.392739
647.430544	0.392835
647.774101	0.391689
648.117606	0.391154
648.461059	0.391596
648.804460	0.393835
649.147810	0.399257
649.491108	0.400824
649.834354	0.402202
650.177548	0.407579
650.520690	0.412864
650.863781	0.413828
651.206820	0.413229
651.549807	0.418081
651.892742	0.421838
652.235626	0.420669
652.578458	0.422187
652.921238	0.427714
653.263967	0.425920
653.606644	0.429951
653.949269	0.429533
654.291843	0.433184
654.634365	0.430124
654.976836	0.433283
655.319255	0.433324
655.661622	0.434531
656.003938	0.434778
656.346203	0.437773
656.688416	0.436012
657.030577	0.439191
657.372687	0.440900
657.714746	0.441562
658.056753	0.438885
658.398708	0.441808
658.740612	0.443753
659.082465	0.439696
659.424266	0.440185
659.766016	0.439840
660.107715	0.441897
660.449362	0.441221
660.790958	0.441625
661.132503	0.441885
661.473996	0.440132
661.815438	0.441055
662.156829	0.441077
662.498168	0.441809
662.839456	0.442750
663.180693	0.441061
663.521879	0.441248
663.863013	0.441661
664.204097	0.440449
664.545129	0.437025
664.886110	0.437526
665.227040	0.434813
665.567918	0.437206
665.908746	0.435173
666.249522	0.435244
666.590248	0.435935
666.930922	0.433900
667.271545	0.433138
667.612118	0.433144
667.952639	0.434995
668.293109	0.433434
668.633528	0.436438
668.973896	0.435937
669.314213	0.436539
669.654480	0.438017
669.994695	0.438230
670.334859	0.438961
670.674973	0.439828
671.015035	0.439817
671.355047	0.439554
671.695008	0.440512
672.034918	0.442032
672.374777	0.441469
672.714585	0.443049
673.054342	0.442395
673.394049	0.443109
673.733705	0.440611
674.073310	0.441222
674.412864	0.445473
674.752368	0.445552
675.091820	0.445516
675.431223	0.449760
675.770574	0.449869
676.109875	0.453003
676.449125	0.452718
676.788324	0.454443
677.127473	0.460304
677.466571	0.460207
677.805619	0.461531
678.144616	0.462657
678.483562	0.464086
678.822458	0.466399
679.161303	0.467680
679.500098	0.468124
679.838842	0.470149
680.177535	0.469527
680.516179	0.468461
680.854771	0.467306
681.193314	0.460958
681.531805	0.452106
681.870247	0.440060
682.208638	0.432879
682.546978	0.431583
682.885268	0.433514
683.223508	0.439958
683.561697	0.443856
683.899836	0.445869
684.237925	0.449707
684.575963	0.452123
684.913951	0.455540
685.251889	0.450917
685.589776	0.452847
685.927614	0.455468
686.265401	0.449675
686.603137	0.451488
686.940824	0.445271
687.278460	0.443697
687.616046	0.442604
687.953582	0.437791
688.291068	0.439669
688.628504	0.434846
688.965889	0.437043
689.303224	0.441141
689.640510	0.444649
689.977745	0.451336
690.314930	0.458438
690.652065	0.463250
690.989150	0.471213
691.326185	0.476879
691.663170	0.481115
692.000105	0.488698
692.336990	0.496186
692.673825	0.498041
693.010610	0.505212
693.347345	0.510696
693.684030	0.511569
694.020665	0.515921
694.357251	0.525355
694.693786	0.524763
695.030272	0.528828
695.366707	0.532694
695.703093	0.535959
696.039429	0.533698
696.375716	0.535779
696.711952	0.538352
697.048139	0.539618
697.384276	0.542075
697.720363	0.540921
698.056400	0.540237
698.392388	0.545114
698.728326	0.548331
699.064214	0.550894
699.400053	0.551342
699.735842	0.554814
700.071581	0.558057
700.407270	0.561060
700.742910	0.563397
701.078501	0.569705
701.414042	0.570647
701.749533	0.572815
702.084974	0.581855
702.420366	0.574523
702.755709	0.581945
703.091002	0.589985
703.426246	0.583163
703.761440	0.588993
704.096584	0.594091
704.431679	0.590604
704.766725	0.593550
705.101721	0.594862
705.436668	0.590152
705.771565	0.597862
706.106413	0.593567
706.441212	0.589286
706.775961	0.587719
707.110661	0.591407
707.445311	0.587489
707.779913	0.584311
708.114465	0.583345
708.448967	0.580166
708.783421	0.572074
709.117825	0.566981
709.452180	0.566915
709.786485	0.561018
710.120742	0.550393
710.454949	0.552618
710.789107	0.544689
711.123216	0.536249
711.457275	0.537383
711.791286	0.528066
712.125247	0.527393
712.459159	0.538168
712.793023	0.530970
713.126837	0.534905
713.460602	0.535336
713.794318	0.544343
714.127985	0.543679
714.461602	0.553459
714.795171	0.556661
715.128691	0.564259
715.462162	0.571451
715.795584	0.577459
716.128957	0.580105
716.462281	0.587067
716.795556	0.589980
717.128782	0.595452
717.461960	0.604837
717.795088	0.602754
718.128167	0.609393
718.461198	0.618263
718.794180	0.619273
719.127113	0.621342
719.459997	0.624714
719.792833	0.631564
720.125619	0.632517
720.458357	0.638198
720.791046	0.638044
721.123686	0.641109
721.456278	0.647831
721.788821	0.645857
722.121315	0.649327
722.453761	0.654118
722.786158	0.651755
723.118506	0.648077
723.450805	0.656544
723.783056	0.652009
724.115259	0.649022
724.447412	0.648677
724.779518	0.650413
725.111574	0.649774
725.443582	0.644189
725.775542	0.646723
726.107453	0.639253
726.439315	0.638876
726.771129	0.637447
727.102895	0.630322
727.434612	0.623790
727.766281	0.621954
728.097901	0.621631
728.429473	0.621157
728.760996	0.618974
729.092471	0.618719
729.423897	0.623264
729.755276	0.622124
730.086606	0.622905
730.417887	0.616909
730.749120	0.607608
731.080305	0.598568
731.411442	0.594714
731.742530	0.599889
732.073570	0.598552
732.404562	0.591050
732.735506	0.591977
733.066401	0.596385
733.397249	0.606616
733.728048	0.617597
734.058798	0.630374
734.389501	0.640328
734.720156	0.650102
735.050762	0.657825
735.381320	0.658697
735.711831	0.668881
736.042293	0.673306
736.372707	0.668954
736.703073	0.673975
737.033391	0.675522
737.363661	0.672359
737.693883	0.668183
738.024056	0.667275
738.354182	0.668396
738.684260	0.655927
739.014290	0.652541
739.344272	0.653797
739.674207	0.647653
740.004093	0.646823
740.333931	0.646762
740.663722	0.647029
740.993464	0.648189
741.323159	0.651041
741.652806	0.657299
741.982405	0.660827
742.311956	0.665621
742.641460	0.667699
742.970915	0.672047
743.300323	0.679234
743.629683	0.685349
743.958996	0.687263
744.288260	0.691647
744.617477	0.697766
744.946647	0.699250
745.275768	0.704800
745.604842	0.703964
745.933869	0.714588
746.262847	0.714503
746.591778	0.708878
746.920662	0.715183
747.249498	0.721555
747.578286	0.712062
747.907027	0.707608
748.235720	0.708807
748.564365	0.703978
748.892963	0.703011
749.221514	0.707114
749.550017	0.712132
749.878473	0.712035
750.206881	0.717851
750.535242	0.718867
750.863555	0.719173
751.191821	0.719976
751.520039	0.723400
751.848210	0.728722
752.176334	0.720069
752.504411	0.719496
752.832440	0.727511
753.160421	0.731666
753.488356	0.729313
753.816243	0.727495
754.144082	0.735046
754.471875	0.739010
754.799620	0.734786
755.127318	0.735825
755.454969	0.735389
755.782572	0.735425
756.110129	0.740677
756.437638	0.742962
756.765100	0.739366
757.092515	0.737960
757.419882	0.736486
757.747203	0.742007
758.074477	0.740971
758.401703	0.738070
758.728882	0.733624
759.056014	0.732431
759.383099	0.731547
759.710138	0.732693
760.037129	0.728826
760.364073	0.722038
760.690970	0.725460
761.017820	0.730796
761.344623	0.727380
761.671379	0.717941
761.998088	0.706624
762.324751	0.683999
762.651366	0.642062
762.977935	0.576077
763.304456	0.524754
763.630931	0.514813
763.957359	0.553968
764.283740	0.598345
764.610074	0.625180
764.936362	0.656420
765.262602	0.681895
765.588796	0.704031
765.914943	0.721597
766.241044	0.738096
766.567097	0.745412
766.893104	0.754916
767.219064	0.760669
767.544978	0.767019
767.870845	0.780850
768.196665	0.785311
768.522438	0.783334
768.848165	0.783900
769.173846	0.792910
769.499479	0.796750
769.825066	0.800424
770.150607	0.805223
770.476101	0.800581
770.801548	0.800939
771.126949	0.813518
771.452303	0.816572
771.777611	0.816296
772.102872	0.815924
772.428087	0.821738
772.753256	0.824260
773.078378	0.826388
773.403453	0.834418
773.728482	0.839254
774.053465	0.831945
774.378401	0.835922
774.703291	0.844832
775.028135	0.844290
775.352932	0.845916
775.677683	0.849804
776.002388	0.850156
776.327046	0.847683
776.651658	0.852360
776.976224	0.854948
777.300743	0.854210
777.625216	0.857979
777.949643	0.859813
778.274024	0.859655
778.598359	0.860889
778.922647	0.858908
779.246889	0.859986
779.571086	0.864448
779.895236	0.867060
780.219339	0.863068
780.543397	0.860428
780.867409	0.858371
781.191374	0.861440
781.515294	0.862011
781.839167	0.860673
782.162995	0.865504
782.486776	0.863426
782.810511	0.862496
783.134201	0.866699
783.457844	0.863260
783.781441	0.867040
784.104993	0.872901
784.428498	0.873089
784.751958	0.868691
785.075372	0.871499
785.398739	0.875768
785.722061	0.871649
786.045337	0.866701
786.368568	0.872414
786.691752	0.875389
787.014891	0.860239
787.337983	0.851773
787.661030	0.844662
787.984031	0.826905
788.306987	0.813978
788.629897	0.816490
788.952760	0.819972
789.275579	0.824735
789.598351	0.840129
789.921078	0.852704
790.243759	0.854601
790.566395	0.859176
790.888984	0.865974
791.211529	0.870415
791.534027	0.874245
791.856480	0.876315
792.178888	0.881913
792.501249	0.883934
792.823566	0.884944
793.145836	0.885180
793.468062	0.888272
793.790241	0.886991
794.112375	0.885363
794.434464	0.881605
794.756507	0.879662
795.078505	0.880675
795.400457	0.874434
795.722364	0.862969
796.044226	0.856158
796.366042	0.854773
796.687812	0.859148
797.009538	0.854505
797.331218	0.856925
797.652852	0.862894
797.974442	0.867803
798.295986	0.866974
798.617484	0.869791
798.938938	0.874718
799.260346	0.878258
799.581709	0.881159
799.903026	0.882738
800.224299	0.883950
800.545526	0.885945
800.866708	0.890879
801.187845	0.895279
801.508936	0.894436
801.829983	0.892917
802.150984	0.895450
802.471940	0.900621
802.792851	0.899046
803.113717	0.899939
803.434538	0.897857
803.755314	0.900830
804.076045	0.902181
804.396731	0.902484
804.717372	0.902793
805.037967	0.904307
805.358518	0.901434
805.679024	0.899597
805.999485	0.899710
806.319901	0.900038
806.640272	0.901029
806.960598	0.898934
807.280879	0.895659
807.601115	0.894913
807.921306	0.897463
808.241453	0.899036
808.561554	0.896502
808.881611	0.896186
809.201623	0.898201
809.521590	0.899113
809.841513	0.899355
810.161390	0.900041
810.481223	0.900638
810.801011	0.903846
811.120755	0.905383
811.440453	0.903830
811.760107	0.902805
812.079716	0.903417
812.399281	0.906170
812.718801	0.908919
813.038276	0.910837
813.357707	0.908013
813.677093	0.905583
813.996434	0.910328
814.315731	0.911729
814.634983	0.912355
814.954191	0.909939
815.273354	0.907797
815.592473	0.903909
815.911547	0.904047
816.230577	0.901237
816.549562	0.898962
816.868502	0.900108
817.187399	0.895958
817.506250	0.891571
817.825058	0.893162
818.143821	0.888847
818.462539	0.885774
818.781213	0.876169
819.099843	0.865095
819.418429	0.850113
819.736970	0.833418
820.055466	0.814697
820.373919	0.789058
820.692327	0.756757
821.010691	0.723604
821.329011	0.647370
821.647286	0.534542
821.965517	0.422208
822.283704	0.379961
822.601847	0.381724
822.919945	0.416938
823.237999	0.450238
823.556010	0.495832
823.873976	0.550792
824.191897	0.599998
824.509775	0.641994
824.827609	0.687736
825.145398	0.708545
825.463144	0.711111
825.780845	0.694806
826.098502	0.676467
826.416116	0.631286
826.733685	0.588117
827.051210	0.580075
827.368692	0.593930
827.686129	0.630935
828.003522	0.682896
828.320872	0.729690
828.638177	0.772738
828.955439	0.805486
829.272656	0.826577
829.589830	0.843433
829.906960	0.858937
830.224046	0.871002
830.541088	0.880268
830.858086	0.885186
831.175041	0.890272
831.491952	0.890602
831.808819	0.886986
832.125642	0.879925
832.442421	0.866233
832.759157	0.844699
833.075849	0.799963
833.392497	0.736808
833.709101	0.696288
834.025662	0.705925
834.342179	0.737208
834.658653	0.775192
834.975083	0.811106
835.291469	0.837046
835.607811	0.858745
835.924110	0.874128
836.240366	0.890756
836.556578	0.904462
836.872746	0.912918
837.188871	0.916944
837.504952	0.922503
837.820990	0.925680
838.136984	0.929663
838.452935	0.933260
838.768842	0.933699
839.084706	0.927145
839.400526	0.902251
839.716303	0.862224
840.032037	0.841594
840.347727	0.844688
840.663373	0.861376
840.978977	0.883338
841.294537	0.905165
841.610054	0.922154
841.925527	0.927807
842.240957	0.935115
842.556344	0.942642
842.871687	0.948044
843.186987	0.952292
843.502244	0.952149
843.817458	0.954245
844.132629	0.956763
844.447756	0.961727
844.762840	0.962119
845.077881	0.962495
845.392879	0.962189
845.707833	0.965166
846.022745	0.966710
846.337613	0.966680
846.652438	0.967373
846.967221	0.966494
847.281960	0.967892
847.596656	0.969526
847.911309	0.966585
848.225919	0.968530
848.540485	0.969104
848.855009	0.970561
849.169490	0.970979
849.483928	0.970938
849.798323	0.970389
850.112675	0.972426
850.426984	0.970596
850.741251	0.971201
851.055474	0.972142
851.369654	0.969813
851.683792	0.970281
851.997887	0.971315
852.311938	0.972793
852.625947	0.972387
852.939914	0.969737
853.253837	0.970798
853.567718	0.971869
853.881555	0.972024
854.195350	0.969374
854.509103	0.970821
854.822812	0.971973
855.136479	0.970923
855.450103	0.971485
855.763685	0.969311
856.077224	0.970304
856.390720	0.972138
856.704173	0.971966
857.017584	0.970595
857.330953	0.968811
857.644278	0.969889
857.957561	0.969872
858.270802	0.970238
858.584000	0.969641
858.897155	0.967472
859.210268	0.968761
859.523339	0.969431
859.836367	0.971488
860.149352	0.971572
860.462295	0.970559
860.775195	0.971371
861.088054	0.970313
861.400869	0.970807
861.713642	0.972294
862.026373	0.970930
862.339062	0.972436
862.651708	0.969740
862.964312	0.969746
863.276873	0.970331
863.589392	0.969309
863.901869	0.968595
864.214303	0.968120
864.526696	0.966122
864.839045	0.965719
865.151353	0.963798
865.463619	0.964689
865.775842	0.965383
866.088023	0.963711
866.400162	0.964892
866.712258	0.964214
867.024313	0.965007
867.336325	0.964975
867.648296	0.965448
867.960224	0.964575
868.272110	0.963067
868.583954	0.966601
868.895755	0.965186
869.207515	0.963068
869.519233	0.962097
869.830909	0.962351
870.142542	0.965256
870.454134	0.963041
870.765684	0.962516
871.077191	0.960096
871.388657	0.960712
871.700081	0.959556
872.011463	0.960184
872.322803	0.960344
872.634101	0.958306
872.945357	0.958183
873.256571	0.955352
873.567744	0.954638
873.878874	0.955709
874.189963	0.954647
874.501010	0.953111
874.812015	0.950752
875.122979	0.953909
875.433900	0.955544
875.744780	0.957303
876.055618	0.952869
876.366415	0.952972
876.677169	0.951946
876.987882	0.954225
877.298554	0.953770
877.609183	0.950260
877.919771	0.947502
878.230317	0.945973
878.540822	0.944279
878.851285	0.939497
879.161707	0.930705
879.472087	0.918246
879.782425	0.904362
880.092722	0.870941
880.402977	0.821023
880.713191	0.762232
881.023363	0.706312
881.333494	0.673073
881.643583	0.645111
881.953631	0.644066
882.263637	0.673343
882.573602	0.712088
882.883526	0.736618
883.193408	0.759569
883.503248	0.780632
883.813048	0.806529
884.122806	0.835170
884.432522	0.858262
884.742197	0.876944
885.051831	0.888083
885.361424	0.897408
885.670975	0.908624
885.980485	0.918331
886.289954	0.923358
886.599382	0.928616
886.908768	0.931257
887.218113	0.937722
887.527417	0.942256
887.836680	0.945344
888.145901	0.947035
888.455082	0.948558
888.764221	0.953346
889.073319	0.955365
889.382376	0.956359
889.691392	0.956057
890.000366	0.955146
890.309300	0.957403
890.618193	0.956126
890.927044	0.954483
891.235855	0.954574
891.544625	0.954466
891.853353	0.955417
892.162041	0.952076
892.470687	0.946285
892.779293	0.942255
893.087858	0.938146
893.396381	0.929504
893.704864	0.917765
894.013306	0.894716
894.321707	0.869592
894.630068	0.855054
894.938387	0.851125
895.246665	0.853280
895.554903	0.864555
895.863100	0.876559
896.171256	0.892945
896.479371	0.911713
896.787446	0.924835
897.095480	0.929237
897.403473	0.932660
897.711425	0.936205
898.019336	0.943470
898.327207	0.946444
898.635038	0.948539
898.942827	0.949026
899.250576	0.951095
899.558284	0.954921
899.865952	0.956719
900.173579	0.957676
900.481165	0.959521
900.788711	0.962550
901.096216	0.964201
901.403681	0.963174
901.711105	0.964893
902.018489	0.966052
902.325832	0.965591
902.633135	0.965126
902.940397	0.958599
903.247619	0.947136
903.554800	0.923011
903.861941	0.885366
904.169041	0.851739
904.476101	0.837087
904.783121	0.837188
905.090100	0.851597
905.397039	0.872214
905.703938	0.893208
906.010796	0.911447
906.317614	0.929242
906.624391	0.938422
906.931129	0.948289
907.237826	0.956435
907.544483	0.961440
907.851099	0.965392
908.157675	0.970683
908.464211	0.973888
908.770707	0.974880
909.077163	0.976328
909.383578	0.977143
909.689954	0.976634
909.996289	0.976693
910.302584	0.979567
910.608839	0.981597
910.915054	0.980608
911.221229	0.980007
911.527363	0.978788
911.833458	0.979298
912.139513	0.979092
912.445527	0.977632
912.751502	0.976752
913.057436	0.974982
913.363331	0.972893
913.669186	0.970084
913.975000	0.963239
914.280775	0.959027
914.586510	0.952847
914.892205	0.939563
915.197859	0.920020
915.503475	0.893663
915.809050	0.875265
916.114585	0.870983
916.420081	0.869593
916.725536	0.866165
917.030952	0.872428
917.336328	0.885201
917.641665	0.898982
917.946961	0.914311
918.252218	0.925461
918.557435	0.933736
918.862612	0.941522
919.167750	0.946351
919.472848	0.950744
919.777906	0.955695
920.082925	0.960306
920.387904	0.965660
920.692843	0.966118
920.997743	0.966881
921.302603	0.971172
921.607423	0.972360
921.912204	0.974573
922.216946	0.973889
922.521647	0.975600
922.826310	0.977115
923.130932	0.979154
923.435516	0.980241
923.740059	0.981536
924.044564	0.980845
924.349028	0.982480
924.653454	0.984959
924.957840	0.987212
925.262186	0.985952
925.566493	0.984982
925.870761	0.985750
926.174989	0.987698
926.479178	0.989220
926.783328	0.990633
927.087438	0.990334
927.391509	0.988603
927.695541	0.991106
927.999533	0.990610
928.303486	0.992009
928.607400	0.992211
928.911275	0.990284
929.215110	0.990715
929.518906	0.991668
929.822663	0.990562
930.126381	0.992416
930.430060	0.991383
930.733699	0.990655
931.037299	0.990728
931.340861	0.991672
931.644383	0.990563
931.947866	0.990927
932.251309	0.991993
932.554714	0.991697
932.858080	0.991680
933.161407	0.990897
933.464694	0.992583
933.767943	0.991764
934.071153	0.992757
934.374323	0.992973
934.677455	0.992291
934.980548	0.991761
935.283602	0.992677
935.586617	0.992956
935.889593	0.991745
936.192530	0.992733
936.495428	0.991728
936.798287	0.991515
937.101108	0.991123
937.403890	0.990323
937.706632	0.991468
938.009336	0.988224
938.312002	0.987001
938.614628	0.986881
938.917216	0.985826
939.219765	0.983243
939.522275	0.985035
939.824747	0.985242
940.127179	0.986167
940.429573	0.986255
940.731929	0.985442
941.034246	0.985275
941.336524	0.987000
941.638763	0.988103
941.940964	0.988636
942.243126	0.986642
942.545250	0.988813
942.847335	0.989758
943.149381	0.989993
943.451389	0.989879
943.753359	0.989823
944.055290	0.991718
944.357182	0.990489
944.659036	0.988656
944.960851	0.989449
945.262628	0.990924
945.564367	0.991455
945.866067	0.991198
946.167729	0.991150
946.469352	0.991432
946.770937	0.991499
947.072484	0.992709
947.373992	0.990673
947.675462	0.991476
947.976893	0.991414
948.278286	0.993091
948.579641	0.993424
948.880958	0.991122
949.182236	0.992386
949.483476	0.993085
949.784678	0.990918
950.085841	0.992796
950.386967	0.992302
950.688054	0.992589
950.989103	0.991990
951.290114	0.989991
951.591087	0.990208
951.892021	0.990849
952.192917	0.989722
952.493776	0.989426
952.794596	0.989928
953.095378	0.989153
953.396122	0.989404
953.696828	0.987342
953.997496	0.991416
954.298126	0.991437
954.598718	0.993608
954.899272	0.993402
955.199788	0.991935
955.500266	0.993668
955.800706	0.994019
956.101108	0.994337
956.401472	0.994812
956.701798	0.994847
957.002087	0.994146
957.302337	0.992948
957.602550	0.996128
957.902724	0.996497
958.202861	0.995908
958.502960	0.996629
958.803022	0.994316
959.103045	0.995810
959.403031	0.997039
959.702979	0.995882
960.002889	0.996369
960.302762	0.995150
960.602596	0.996755
960.902393	0.994422
961.202153	0.997779
961.501875	0.998263
961.801559	0.996443
962.101205	0.995882
962.400814	0.996920
962.700385	0.997069
962.999918	0.995632
963.299414	0.997333
963.598873	0.996207
963.898293	0.996227
964.197677	0.996110
964.497022	0.996304
964.796331	0.997526
965.095601	0.997110
965.394835	0.996527
965.694030	0.997702
965.993189	0.997862
966.292309	0.998229
966.591393	0.997821
966.890439	0.997431
967.189447	0.998077
967.488419	0.997405
967.787353	0.997401
968.086249	0.997218
968.385108	0.996905
968.683930	0.996111
968.982714	0.998465
969.281462	0.997113
969.580172	0.997087
969.878844	0.998271
970.177480	0.996607
970.476078	0.996428
970.774639	0.998135
971.073162	0.998734
971.371649	0.998569
971.670098	0.997230
971.968510	0.997880
972.266885	0.996020
972.565223	0.996756
972.863524	0.995640
973.161788	0.996315
973.460014	0.998343
973.758204	0.997115
974.056356	0.997491
974.354471	0.994742
974.652550	0.994906
974.950591	0.996636
975.248595	0.997187
975.546563	0.997543
975.844493	0.998526
976.142386	0.997036
976.440243	0.998726
976.738062	0.997613
977.035845	0.997832
977.333590	0.997742
977.631299	0.998320
977.928971	0.997757
978.226606	0.997478
978.524204	0.996166
978.821765	0.998886
979.119290	0.996514
979.416777	0.996847
979.714228	0.997116
980.011642	0.996411
980.309020	0.997512
980.606360	0.997367
980.903664	0.998431
981.200931	0.997355
981.498162	0.996832
981.795356	0.995834
982.092513	0.994704
982.389633	0.995697
982.686717	0.992193
982.983764	0.992656
983.280775	0.991733
983.577749	0.991265
983.874686	0.993050
984.171587	0.992651
984.468451	0.994240
984.765279	0.995327
985.062070	0.994332
985.358824	0.996711
985.655543	0.994838
985.952224	0.996549
986.248869	0.997413
986.545478	0.997214
986.842050	0.999324
987.138586	0.995594
987.435086	0.997331
987.731549	0.999277
988.027975	0.997465
988.324366	0.997979
988.620719	0.996767
988.917037	0.997364
989.213318	0.998788
989.509563	0.999055
989.805772	0.999043
990.101944	0.998007
990.398080	0.997997
990.694180	0.998350
990.990244	0.998350
991.286271	0.997056
991.582262	0.998412
991.878217	0.998006
992.174136	0.999042
992.470019	0.998345
992.765865	0.997809
993.061676	0.998174
993.357450	0.999121
993.653188	0.997494
993.948890	0.997631
994.244556	0.999184
994.540186	0.996950
994.835780	0.998055
995.131337	0.998483
995.426859	0.997159
995.722345	0.997468
996.017795	0.995938
996.313208	0.997597
996.608586	0.996942
996.903928	0.997095
997.199234	0.996860
997.494504	0.998207
997.789738	0.996995
998.084936	0.996998
998.380099	0.998776
998.675225	0.996913
998.970316	0.999090
999.265371	0.999146
999.560390	0.997673
999.855373	0.998912
1000.150320	0.998783
1000.445232	0.998490
1000.740108	0.997488
1001.034948	0.997463
1001.329752	0.998161
1001.624521	0.998495
1001.919254	0.998955
1002.213951	0.998871
1002.508613	0.999074
1002.803239	0.999406
1003.097829	1.000291
1003.392384	0.999332
1003.686903	0.998357
1003.981386	0.998200
1004.275834	1.000091
1004.570246	0.998773
1004.864623	0.999109
1005.158964	0.998774
1005.453270	0.999434
1005.747540	0.997198
1006.041775	0.998945
1006.335974	0.998766
1006.630138	0.999386
1006.924266	0.999407
1007.218359	1.000380
1007.512416	0.998657
1007.806438	1.000089
1008.100425	1.000110
1008.394376	0.999470
1008.688292	0.998589
1008.982172	1.000769
1009.276017	0.999482
1009.569827	0.999472
1009.863602	0.998140
1010.157341	1.001356
1010.451045	0.998748
1010.744714	0.999096
1011.038347	0.998813
1011.331945	0.999187
1011.625508	0.997133
1011.919036	0.999209
1012.212528	0.998378
1012.505986	0.998434
1012.799408	0.999659
1013.092795	0.999638
1013.386147	0.999910
1013.679464	0.999652
1013.972745	0.998824
1014.265992	0.998222
1014.559204	0.998476
1014.852380	0.998912
1015.145521	0.998408
1015.438628	0.999274
1015.731699	0.998873
1016.024736	0.998845
1016.317737	0.998598
1016.610703	0.998194
1016.903635	0.999601
1017.196531	0.999026
1017.489393	0.999127
1017.782219	0.998627
1018.075011	0.998974
1018.367768	0.999427
1018.660490	0.999382
1018.953177	0.999382
1019.245829	0.999382
