Dividing Wavelength (nm)	Counts (n)	Blue Motor Position (mm): 0.000000	Red Motor Position (mm): 15.500000	
326.493990	1.002244
326.888308	1.002244
327.282561	1.002244
327.676750	1.000237
328.070874	0.998864
328.464933	1.001450
328.858929	1.000424
329.252859	1.001117
329.646726	0.999788
330.040528	1.000639
330.434265	1.000457
330.827938	1.001014
331.221547	1.001564
331.615091	1.000475
332.008571	1.001142
332.401986	1.001386
332.795338	1.001796
333.188625	0.998979
333.581847	1.001154
333.975006	1.000690
334.368100	1.000492
334.761129	1.000946
335.154095	1.000884
335.546996	0.999315
335.939833	0.994076
336.332606	0.994357
336.725315	0.995194
337.117960	0.995389
337.510540	0.994454
337.903056	0.995744
338.295508	0.994281
338.687896	0.993138
339.080220	0.994948
339.472480	0.994540
339.864676	0.995160
340.256807	0.994227
340.648875	0.995729
341.040879	0.994826
341.432818	0.994520
341.824694	0.994672
342.216506	0.995287
342.608253	0.994879
342.999937	0.993584
343.391557	0.995151
343.783113	0.995160
344.174605	0.995652
344.566033	0.994310
344.957397	0.993761
345.348697	0.993832
345.739934	0.994091
346.131106	0.993899
346.522215	0.994414
346.913260	0.994303
347.304241	0.995416
347.695159	0.994941
348.086012	0.993578
348.476802	0.994197
348.867528	0.994782
349.258191	0.993872
349.648789	0.994186
350.039324	0.994738
350.429796	0.994301
350.820203	0.994844
351.210548	0.994728
351.600828	0.994956
351.991045	0.994409
352.381198	0.993326
352.771288	0.994939
353.161314	0.994358
353.551276	0.995434
353.941175	0.994550
354.331010	0.994021
354.720782	0.994208
355.110490	0.993917
355.500135	0.995462
355.889717	0.994994
356.279235	0.994649
356.668689	0.993866
357.058080	0.994436
357.447408	0.994744
357.836672	0.994228
358.225873	0.994429
358.615010	0.995053
359.004084	0.995990
359.393095	0.994814
359.782043	0.994285
360.170927	0.994584
360.559748	0.994510
360.948505	0.993203
361.337199	0.994514
361.725830	0.994052
362.114398	0.994378
362.502903	0.994798
362.891344	0.996106
363.279722	0.994198
363.668037	0.995831
364.056289	0.993719
364.444478	0.995872
364.832603	0.995718
365.220665	0.994072
365.608665	0.993530
365.996601	0.994674
366.384474	0.994193
366.772284	0.994471
367.160031	0.993540
367.547715	0.993655
367.935336	0.994614
368.322893	0.993816
368.710388	0.994419
369.097820	0.994108
369.485189	0.993272
369.872495	0.993948
370.259738	0.992005
370.646918	0.995425
371.034035	0.994349
371.421090	0.993759
371.808081	0.994412
372.195010	0.994876
372.581875	0.995060
372.968678	0.993988
373.355418	0.994766
373.742096	0.994055
374.128710	0.994951
374.515262	0.994400
374.901751	0.994750
375.288177	0.993945
375.674540	0.995533
376.060841	0.993993
376.447079	0.994585
376.833254	0.994190
377.219367	0.994311
377.605417	0.994458
377.991404	0.994386
378.377329	0.993884
378.763191	0.994322
379.148991	0.994310
379.534727	0.994773
379.920402	0.994566
380.306013	0.994466
380.691563	0.994767
381.077049	0.994842
381.462474	0.994702
381.847835	0.994566
382.233134	0.994506
382.618371	0.994449
383.003545	0.994368
383.388657	0.994605
383.773706	0.994883
384.158693	0.994720
384.543618	0.994741
384.928480	0.995516
385.313280	0.994425
385.698017	0.995544
386.082692	0.994314
386.467305	0.994978
386.851856	0.994757
387.236344	0.993831
387.620770	0.993300
388.005133	0.994581
388.389435	0.994863
388.773674	0.993727
389.157851	0.993445
389.541965	0.994687
389.926018	0.993759
390.310008	0.995341
390.693936	0.993682
391.077802	0.995149
391.461606	0.993399
391.845348	0.994439
392.229027	0.996039
392.612645	0.994317
392.996200	0.994558
393.379694	0.992816
393.763125	0.994478
394.146494	0.992678
394.529801	0.991374
394.913047	0.991465
395.296230	0.990480
395.679351	0.989738
396.062410	0.988218
396.445408	0.986955
396.828343	0.985188
397.211217	0.982842
397.594028	0.982059
397.976778	0.977697
398.359466	0.975169
398.742092	0.971656
399.124656	0.969258
399.507158	0.964602
399.889598	0.961650
400.271977	0.956285
400.654294	0.952876
401.036549	0.946740
401.418742	0.943536
401.800874	0.935032
402.182944	0.929269
402.564952	0.922159
402.946898	0.918167
403.328783	0.911185
403.710606	0.906145
404.092367	0.894265
404.474067	0.888090
404.855705	0.881050
405.237282	0.876649
405.618797	0.864974
406.000250	0.854517
406.381642	0.844848
406.762972	0.837768
407.144240	0.829371
407.525447	0.821489
407.906593	0.810010
408.287677	0.799571
408.668700	0.794659
409.049661	0.782151
409.430560	0.771616
409.811399	0.766117
410.192176	0.748300
410.572891	0.743609
410.953545	0.727967
411.334138	0.726612
411.714669	0.713905
412.095139	0.713173
412.475547	0.694237
412.855894	0.687114
413.236180	0.678534
413.616405	0.674405
413.996568	0.660781
414.376670	0.656912
414.756711	0.653147
415.136691	0.643085
415.516609	0.629749
415.896466	0.620781
416.276262	0.610156
416.655997	0.606038
417.035670	0.584485
417.415283	0.572029
417.794834	0.570174
418.174324	0.568657
418.553753	0.571477
418.933121	0.550623
419.312428	0.539627
419.691674	0.539659
420.070859	0.525934
420.449983	0.528959
420.829045	0.515329
421.208047	0.520682
421.586988	0.510688
421.965867	0.506361
422.344686	0.492319
422.723444	0.501745
423.102141	0.514904
423.480777	0.487194
423.859352	0.505124
424.237866	0.480514
424.616319	0.479260
424.994712	0.469340
425.373044	0.477532
425.751314	0.464377
426.129524	0.478915
426.507673	0.462376
426.885762	0.454725
427.263789	0.459141
427.641756	0.468081
428.019662	0.458213
428.397508	0.455947
428.775292	0.460274
429.153016	0.452013
429.530679	0.457660
429.908282	0.450156
430.285824	0.459801
430.663305	0.438332
431.040726	0.458440
431.418086	0.459292
431.795385	0.450406
432.172624	0.448729
432.549802	0.449077
432.926920	0.447852
433.303977	0.447651
433.680974	0.444981
434.057910	0.442719
434.434786	0.442650
434.811601	0.444727
435.188355	0.427110
435.565050	0.436246
435.941683	0.437838
436.318257	0.422382
436.694770	0.422725
437.071222	0.420848
437.447614	0.425004
437.823946	0.431503
438.200218	0.421191
438.576429	0.430818
438.952580	0.423591
439.328670	0.420644
439.704700	0.427052
440.080670	0.428376
440.456580	0.409099
440.832429	0.417029
441.208218	0.427829
441.583947	0.417354
441.959616	0.417148
442.335224	0.421560
442.710773	0.412728
443.086261	0.410868
443.461689	0.424769
443.837057	0.414732
444.212365	0.404564
444.587612	0.411123
444.962800	0.401501
445.337927	0.402655
445.712995	0.429241
446.088002	0.391219
446.462949	0.402111
446.837837	0.406415
447.212664	0.395018
447.587431	0.386879
447.962139	0.357578
448.336786	0.316579
448.711374	0.326926
449.085901	0.370801
449.460369	0.374966
449.834776	0.378201
450.209124	0.358069
450.583412	0.351145
450.957640	0.343828
451.331808	0.355088
451.705917	0.378460
452.079965	0.382908
452.453954	0.370984
452.827883	0.378334
453.201752	0.372665
453.575562	0.384111
453.949311	0.372882
454.323001	0.378877
454.696632	0.374287
455.070202	0.367905
455.443713	0.359425
455.817164	0.354054
456.190556	0.349417
456.563888	0.346588
456.937160	0.343991
457.310373	0.361942
457.683526	0.360144
458.056619	0.366066
458.429653	0.366773
458.802628	0.369961
459.175542	0.364449
459.548398	0.346797
459.921194	0.339518
460.293930	0.339669
460.666607	0.317180
461.039224	0.305386
461.411782	0.301086
461.784280	0.300669
462.156719	0.304437
462.529099	0.309327
462.901419	0.324757
463.273680	0.329799
463.645882	0.328686
464.018024	0.334884
464.390106	0.327736
464.762130	0.312613
465.134094	0.295616
465.505999	0.264743
465.877845	0.235185
466.249631	0.222280
466.621358	0.229625
466.993026	0.243575
467.364634	0.249661
467.736184	0.258377
468.107674	0.267402
468.479105	0.266244
468.850477	0.273082
469.221790	0.280042
469.593043	0.289996
469.964238	0.294871
470.335373	0.294390
470.706449	0.292469
471.077467	0.293185
471.448425	0.255164
471.819324	0.230918
472.190164	0.230321
472.560945	0.259332
472.931667	0.281555
473.302330	0.285492
473.672934	0.297266
474.043479	0.285778
474.413965	0.287369
474.784393	0.290788
475.154761	0.286269
475.525070	0.283058
475.895321	0.288750
476.265513	0.282641
476.635645	0.278268
477.005719	0.278423
477.375734	0.274999
477.745691	0.268329
478.115588	0.264639
478.485427	0.258051
478.855207	0.245048
479.224928	0.227800
479.594591	0.215612
479.964194	0.219217
480.333739	0.220326
480.703226	0.221828
481.072653	0.220274
481.442022	0.215864
481.811333	0.212318
482.180584	0.215950
482.549777	0.221181
482.918912	0.224663
483.287988	0.224331
483.657005	0.223879
484.025964	0.230268
484.394864	0.227382
484.763706	0.228223
485.132489	0.233065
485.501213	0.233802
485.869879	0.232131
486.238487	0.235550
486.607036	0.233229
486.975527	0.237831
487.343959	0.233781
487.712333	0.232941
488.080648	0.234348
488.448905	0.233406
488.817104	0.234693
489.185244	0.229055
489.553326	0.225957
489.921350	0.215890
490.289315	0.198461
490.657222	0.193356
491.025070	0.194655
491.392861	0.196743
491.760593	0.202434
492.128267	0.207900
492.495883	0.213664
492.863440	0.219976
493.230939	0.226128
493.598380	0.227335
493.965763	0.229469
494.333088	0.231911
494.700354	0.233447
495.067563	0.232311
495.434713	0.235598
495.801805	0.233557
496.168839	0.235015
496.535815	0.236248
496.902733	0.236315
497.269593	0.237905
497.636395	0.235911
498.003139	0.236103
498.369825	0.238741
498.736453	0.235468
499.103023	0.237059
499.469535	0.236301
499.835989	0.236860
500.202385	0.237742
500.568723	0.241020
500.935003	0.235964
501.301226	0.240127
501.667390	0.234566
502.033497	0.232517
502.399546	0.235531
502.765537	0.237359
503.131470	0.235814
503.497345	0.232002
503.863163	0.241049
504.228923	0.233700
504.594625	0.232739
504.960269	0.237738
505.325856	0.233067
505.691385	0.237449
506.056856	0.234252
506.422270	0.233667
506.787625	0.236128
507.152924	0.233672
507.518164	0.233949
507.883347	0.235666
508.248472	0.237435
508.613540	0.232624
508.978550	0.234925
509.343503	0.235473
509.708398	0.232950
510.073236	0.230664
510.438016	0.231153
510.802738	0.231737
511.167403	0.230629
511.532010	0.232488
511.896561	0.228325
512.261053	0.226823
512.625488	0.228719
512.989866	0.229150
513.354186	0.229562
513.718449	0.231187
514.082655	0.227624
514.446803	0.229860
514.810894	0.227660
515.174927	0.230225
515.538904	0.229664
515.902822	0.226560
516.266684	0.229218
516.630488	0.230112
516.994235	0.228638
517.357925	0.227696
517.721558	0.226139
518.085133	0.225444
518.448651	0.225550
518.812112	0.227708
519.175516	0.227458
519.538863	0.225133
519.902152	0.226634
520.265385	0.223341
520.628560	0.225310
520.991678	0.225615
521.354739	0.224531
521.717743	0.225790
522.080690	0.226323
522.443580	0.223357
522.806413	0.224397
523.169189	0.223662
523.531908	0.222731
523.894569	0.226330
524.257174	0.226148
524.619722	0.223925
524.982213	0.224930
525.344647	0.223784
525.707025	0.224829
526.069345	0.222898
526.431608	0.224405
526.793815	0.222203
527.155964	0.226729
527.518057	0.225775
527.880093	0.226767
528.242072	0.225137
528.603995	0.227111
528.965860	0.228874
529.327669	0.227493
529.689421	0.228449
530.051117	0.229446
530.412755	0.226979
530.774337	0.229449
531.135862	0.229665
531.497331	0.229022
531.858743	0.232010
532.220098	0.228718
532.581396	0.231314
532.942638	0.231676
533.303824	0.232783
533.664953	0.232455
534.026025	0.234112
534.387040	0.232197
534.747999	0.232057
535.108902	0.230751
535.469748	0.235791
535.830537	0.233518
536.191270	0.234199
536.551947	0.233784
536.912567	0.233651
537.273131	0.235696
537.633638	0.235623
537.994089	0.235828
538.354483	0.237211
538.714821	0.234002
539.075103	0.233523
539.435328	0.234592
539.795497	0.238521
540.155609	0.234827
540.515665	0.233077
540.875665	0.238662
541.235609	0.237079
541.595496	0.237342
541.955328	0.233784
542.315102	0.236592
542.674821	0.237303
543.034483	0.237873
543.394090	0.237308
543.753640	0.239219
544.113134	0.234099
544.472571	0.237242
544.831953	0.234166
545.191278	0.238555
545.550548	0.237797
545.909761	0.234662
546.268918	0.235461
546.628019	0.233601
546.987064	0.236312
547.346053	0.238279
547.704986	0.236088
548.063863	0.236435
548.422684	0.236556
548.781449	0.238586
549.140158	0.236097
549.498811	0.238883
549.857408	0.242135
550.215949	0.236708
550.574434	0.239899
550.932864	0.237611
551.291237	0.236475
551.649555	0.237912
552.007817	0.237709
552.366022	0.238439
552.724173	0.238404
553.082267	0.238961
553.440305	0.235770
553.798288	0.240377
554.156215	0.236758
554.514086	0.237418
554.871902	0.240614
555.229661	0.239816
555.587365	0.240543
555.945014	0.242964
556.302606	0.239846
556.660143	0.242270
557.017625	0.238672
557.375050	0.241044
557.732421	0.238329
558.089735	0.240175
558.446994	0.240275
558.804197	0.239316
559.161345	0.239493
559.518437	0.242972
559.875474	0.240472
560.232455	0.239905
560.589381	0.241120
560.946251	0.241341
561.303065	0.238771
561.659825	0.240423
562.016528	0.241971
562.373177	0.244663
562.729770	0.241806
563.086307	0.243808
563.442789	0.241900
563.799216	0.244650
564.155587	0.243107
564.511904	0.244586
564.868164	0.244792
565.224370	0.244286
565.580520	0.246145
565.936615	0.245931
566.292654	0.249127
566.648638	0.246295
567.004567	0.246922
567.360441	0.247668
567.716260	0.249465
568.072023	0.247274
568.427732	0.247761
568.783385	0.250630
569.138982	0.248766
569.494525	0.248271
569.850013	0.251055
570.205445	0.249648
570.560823	0.251995
570.916145	0.254050
571.271412	0.252469
571.626625	0.253411
571.981782	0.254259
572.336884	0.255176
572.691931	0.254745
573.046923	0.255975
573.401860	0.256986
573.756743	0.258932
574.111570	0.258016
574.466342	0.258330
574.821059	0.257297
575.175722	0.260166
575.530330	0.260177
575.884882	0.260097
576.239380	0.262361
576.593823	0.262875
576.948211	0.262193
577.302544	0.265671
577.656823	0.265010
578.011047	0.265197
578.365216	0.265894
578.719330	0.268066
579.073389	0.267423
579.427394	0.268921
579.781344	0.269877
580.135239	0.271202
580.489080	0.271044
580.842866	0.273781
581.196597	0.273777
581.550273	0.272585
581.903895	0.273284
582.257463	0.271547
582.610975	0.274978
582.964434	0.274452
583.317837	0.276673
583.671186	0.277145
584.024481	0.277306
584.377721	0.279671
584.730906	0.280360
585.084037	0.279487
585.437113	0.281317
585.790135	0.281145
586.143103	0.283553
586.496016	0.285033
586.848874	0.282175
587.201679	0.283113
587.554428	0.286617
587.907124	0.285082
588.259765	0.285904
588.612352	0.286589
588.964884	0.290149
589.317362	0.289688
589.669786	0.289853
590.022155	0.288339
590.374470	0.287611
590.726731	0.290089
591.078937	0.294122
591.431090	0.290606
591.783188	0.295171
592.135232	0.295391
592.487222	0.295057
592.839157	0.293442
593.191038	0.295980
593.542866	0.297285
593.894639	0.301226
594.246358	0.298856
594.598022	0.298870
594.949633	0.302199
595.301190	0.302966
595.652692	0.302094
596.004141	0.298354
596.355535	0.306051
596.706876	0.306781
597.058162	0.309019
597.409395	0.306629
597.760573	0.303976
598.111698	0.307578
598.462768	0.308286
598.813785	0.309592
599.164748	0.310663
599.515657	0.310836
599.866511	0.314143
600.217312	0.309525
600.568060	0.315327
600.918753	0.311361
601.269392	0.312035
601.619978	0.315200
601.970510	0.312916
602.320988	0.313206
602.671412	0.310776
603.021783	0.313483
603.372100	0.314955
603.722363	0.314299
604.072572	0.315060
604.422728	0.315318
604.772830	0.317360
605.122878	0.316854
605.472872	0.317007
605.822813	0.315267
606.172701	0.318602
606.522534	0.315826
606.872314	0.315342
607.222041	0.316683
607.571714	0.314673
607.921333	0.315794
608.270899	0.316248
608.620411	0.312694
608.969870	0.316495
609.319276	0.316781
609.668627	0.316637
610.017926	0.314969
610.367171	0.313794
610.716362	0.314627
611.065500	0.314418
611.414585	0.313291
611.763616	0.313760
612.112594	0.314693
612.461518	0.313765
612.810389	0.311754
613.159207	0.313675
613.507971	0.315773
613.856682	0.311452
614.205340	0.312770
614.553945	0.309974
614.902496	0.313817
615.250994	0.311993
615.599439	0.312247
615.947830	0.311439
616.296169	0.312622
616.644454	0.312036
616.992686	0.312372
617.340864	0.310143
617.688990	0.313440
618.037063	0.310312
618.385082	0.312408
618.733048	0.309140
619.080961	0.311368
619.428821	0.310653
619.776628	0.310198
620.124382	0.312721
620.472083	0.313183
620.819731	0.312273
621.167326	0.316315
621.514868	0.315773
621.862357	0.319802
622.209793	0.319516
622.557176	0.321427
622.904506	0.323053
623.251783	0.325037
623.599007	0.327722
623.946179	0.326980
624.293297	0.328986
624.640363	0.332504
624.987376	0.333270
625.334336	0.336027
625.681243	0.337833
626.028097	0.338801
626.374899	0.340185
626.721647	0.339730
627.068343	0.343330
627.414987	0.344522
627.761577	0.346518
628.108115	0.344734
628.454600	0.350049
628.801032	0.347129
629.147412	0.349349
629.493739	0.349924
629.840014	0.352829
630.186236	0.350475
630.532405	0.356021
630.878521	0.353278
631.224585	0.355516
631.570597	0.359007
631.916556	0.357586
632.262462	0.357772
632.608316	0.359826
632.954117	0.360326
633.299866	0.361197
633.645562	0.361600
633.991206	0.366457
634.336797	0.369044
634.682336	0.371978
635.027823	0.372847
635.373257	0.373314
635.718639	0.376865
636.063968	0.376269
636.409245	0.382017
636.754470	0.382566
637.099642	0.384500
637.444762	0.388729
637.789829	0.387296
638.134845	0.390600
638.479808	0.391781
638.824719	0.391147
639.169577	0.396037
639.514383	0.394905
639.859137	0.398781
640.203839	0.398937
640.548489	0.399069
640.893086	0.400661
641.237632	0.401936
641.582125	0.400498
641.926566	0.401977
642.270955	0.402311
642.615292	0.402356
642.959576	0.401598
643.303809	0.402584
643.647990	0.401929
643.992118	0.402246
644.336195	0.406249
644.680219	0.404478
645.024192	0.405093
645.368112	0.398560
645.711981	0.397315
646.055797	0.392625
646.399562	0.395770
646.743274	0.387426
647.086935	0.385246
647.430544	0.385034
647.774101	0.383962
648.117606	0.383298
648.461059	0.383935
648.804460	0.386511
649.147810	0.391486
649.491108	0.393721
649.834354	0.394864
650.177548	0.400556
650.520690	0.405985
650.863781	0.406898
651.206820	0.406200
651.549807	0.410667
651.892742	0.414974
652.235626	0.414304
652.578458	0.415296
652.921238	0.421331
653.263967	0.419411
653.606644	0.423327
653.949269	0.422456
654.291843	0.426477
654.634365	0.423502
654.976836	0.426723
655.319255	0.426722
655.661622	0.428321
656.003938	0.428468
656.346203	0.431726
656.688416	0.429261
657.030577	0.432709
657.372687	0.434869
657.714746	0.435143
658.056753	0.432938
658.398708	0.435965
658.740612	0.437146
659.082465	0.433113
659.424266	0.433776
659.766016	0.433761
660.107715	0.435866
660.449362	0.435395
660.790958	0.436226
661.132503	0.436195
661.473996	0.433494
661.815438	0.434799
662.156829	0.434675
662.498168	0.435427
662.839456	0.437133
663.180693	0.434811
663.521879	0.434900
663.863013	0.435465
664.204097	0.434380
664.545129	0.431205
664.886110	0.431562
665.227040	0.428827
665.567918	0.431381
665.908746	0.429164
666.249522	0.428597
666.590248	0.429578
666.930922	0.428163
667.271545	0.427123
667.612118	0.427368
667.952639	0.429238
668.293109	0.427254
668.633528	0.430755
668.973896	0.430235
669.314213	0.430706
669.654480	0.432557
669.994695	0.432410
670.334859	0.433445
670.674973	0.434050
671.015035	0.433635
671.355047	0.434201
671.695008	0.434693
672.034918	0.436219
672.374777	0.435742
672.714585	0.437321
673.054342	0.437601
673.394049	0.437560
673.733705	0.435416
674.073310	0.435993
674.412864	0.439215
674.752368	0.439507
675.091820	0.439741
675.431223	0.444194
675.770574	0.444255
676.109875	0.447617
676.449125	0.446828
676.788324	0.448996
677.127473	0.455105
677.466571	0.454267
677.805619	0.456265
678.144616	0.457879
678.483562	0.458953
678.822458	0.461414
679.161303	0.462410
679.500098	0.462757
679.838842	0.464805
680.177535	0.463670
680.516179	0.462223
680.854771	0.461932
681.193314	0.455156
681.531805	0.446226
681.870247	0.434944
682.208638	0.427479
682.546978	0.426677
682.885268	0.427784
683.223508	0.434720
683.561697	0.438339
683.899836	0.440477
684.237925	0.444071
684.575963	0.446776
684.913951	0.449935
685.251889	0.445429
685.589776	0.447331
685.927614	0.449966
686.265401	0.444518
686.603137	0.445356
686.940824	0.439808
687.278460	0.437874
687.616046	0.437297
687.953582	0.432249
688.291068	0.433366
688.628504	0.429637
688.965889	0.431214
689.303224	0.435255
689.640510	0.439595
689.977745	0.445551
690.314930	0.453215
690.652065	0.457660
690.989150	0.465204
691.326185	0.471472
691.663170	0.476380
692.000105	0.483587
692.336990	0.490114
692.673825	0.493293
693.010610	0.500030
693.347345	0.504979
693.684030	0.506655
694.020665	0.511505
694.357251	0.520452
694.693786	0.519885
695.030272	0.524055
695.366707	0.527514
695.703093	0.530734
696.039429	0.528703
696.375716	0.530421
696.711952	0.533283
697.048139	0.535485
697.384276	0.537070
697.720363	0.535414
698.056400	0.534637
698.392388	0.540164
698.728326	0.543540
699.064214	0.546015
699.400053	0.546929
699.735842	0.550056
700.071581	0.553175
700.407270	0.555876
700.742910	0.558632
701.078501	0.566154
701.414042	0.565646
701.749533	0.568634
702.084974	0.577375
702.420366	0.569512
702.755709	0.577585
703.091002	0.585083
703.426246	0.578754
703.761440	0.585068
704.096584	0.588417
704.431679	0.586792
704.766725	0.587856
705.101721	0.589821
705.436668	0.585809
705.771565	0.592575
706.106413	0.589717
706.441212	0.584871
706.775961	0.583777
707.110661	0.586158
707.445311	0.583296
707.779913	0.579813
708.114465	0.578518
708.448967	0.574893
708.783421	0.567428
709.117825	0.561528
709.452180	0.561758
709.786485	0.556189
710.120742	0.545431
710.454949	0.547904
710.789107	0.539605
711.123216	0.530990
711.457275	0.533037
711.791286	0.523414
712.125247	0.522100
712.459159	0.533588
712.793023	0.526134
713.126837	0.529295
713.460602	0.530302
713.794318	0.539559
714.127985	0.538442
714.461602	0.548128
714.795171	0.551987
715.128691	0.559679
715.462162	0.566969
715.795584	0.572748
716.128957	0.575284
716.462281	0.582475
716.795556	0.585661
717.128782	0.590942
717.461960	0.599861
717.795088	0.598289
718.128167	0.605040
718.461198	0.613132
718.794180	0.614105
719.127113	0.617517
719.459997	0.620636
719.792833	0.627428
720.125619	0.628455
720.458357	0.633965
720.791046	0.633217
721.123686	0.636382
721.456278	0.644098
721.788821	0.641272
722.121315	0.645658
722.453761	0.649785
722.786158	0.647848
723.118506	0.643959
723.450805	0.652412
723.783056	0.647531
724.115259	0.645648
724.447412	0.644434
724.779518	0.645732
725.111574	0.644741
725.443582	0.640425
725.775542	0.641876
726.107453	0.635016
726.439315	0.634422
726.771129	0.632628
727.102895	0.626311
727.434612	0.619770
727.766281	0.617673
728.097901	0.616128
728.429473	0.616561
728.760996	0.614409
729.092471	0.614007
729.423897	0.618245
729.755276	0.618015
730.086606	0.617903
730.417887	0.612481
730.749120	0.602484
731.080305	0.594161
731.411442	0.589245
731.742530	0.595283
732.073570	0.594185
732.404562	0.585634
732.735506	0.587394
733.066401	0.592069
733.397249	0.601324
733.728048	0.613611
734.058798	0.625618
734.389501	0.636241
734.720156	0.646423
735.050762	0.653968
735.381320	0.655151
735.711831	0.664093
736.042293	0.668959
736.372707	0.664497
736.703073	0.669550
737.033391	0.671702
737.363661	0.668529
737.693883	0.663540
738.024056	0.663088
738.354182	0.663288
738.684260	0.652159
739.014290	0.648843
739.344272	0.649925
739.674207	0.642745
740.004093	0.641115
740.333931	0.642409
740.663722	0.642687
740.993464	0.642929
741.323159	0.647312
741.652806	0.651707
741.982405	0.656361
742.311956	0.661149
742.641460	0.663724
742.970915	0.667002
743.300323	0.674951
743.629683	0.681579
743.958996	0.683706
744.288260	0.687355
744.617477	0.693346
744.946647	0.695228
745.275768	0.700798
745.604842	0.701031
745.933869	0.708827
746.262847	0.711015
746.591778	0.704710
746.920662	0.710834
747.249498	0.717509
747.578286	0.708791
747.907027	0.703779
748.235720	0.704923
748.564365	0.700396
748.892963	0.700152
749.221514	0.703329
749.550017	0.707868
749.878473	0.706997
750.206881	0.713997
750.535242	0.715016
750.863555	0.714638
751.191821	0.716906
751.520039	0.719247
751.848210	0.724587
752.176334	0.716451
752.504411	0.715721
752.832440	0.723094
753.160421	0.727551
753.488356	0.725861
753.816243	0.723736
754.144082	0.731798
754.471875	0.735249
754.799620	0.730229
755.127318	0.732237
755.454969	0.732290
755.782572	0.731115
756.110129	0.736352
756.437638	0.738559
756.765100	0.735498
757.092515	0.734005
757.419882	0.732349
757.747203	0.737528
758.074477	0.736582
758.401703	0.734372
758.728882	0.729009
759.056014	0.728207
759.383099	0.727365
759.710138	0.728372
760.037129	0.724385
760.364073	0.718740
760.690970	0.720454
761.017820	0.726090
761.344623	0.722247
761.671379	0.712376
761.998088	0.701365
762.324751	0.678981
762.651366	0.637049
762.977935	0.570264
763.304456	0.517477
763.630931	0.508621
763.957359	0.547749
764.283740	0.592249
764.610074	0.619742
764.936362	0.650112
765.262602	0.677940
765.588796	0.698577
765.914943	0.716730
766.241044	0.734289
766.567097	0.741575
766.893104	0.750817
767.219064	0.757966
767.544978	0.763025
767.870845	0.777501
768.196665	0.780703
768.522438	0.779949
768.848165	0.779786
769.173846	0.789433
769.499479	0.793801
769.825066	0.797452
770.150607	0.802015
770.476101	0.797355
770.801548	0.798557
771.126949	0.810371
771.452303	0.813357
771.777611	0.812674
772.102872	0.812298
772.428087	0.818006
772.753256	0.820418
773.078378	0.823605
773.403453	0.830900
773.728482	0.835531
774.053465	0.829407
774.378401	0.832761
774.703291	0.841245
775.028135	0.841804
775.352932	0.843115
775.677683	0.845742
776.002388	0.847081
776.327046	0.844694
776.651658	0.849110
776.976224	0.852068
777.300743	0.851367
777.625216	0.854702
777.949643	0.856640
778.274024	0.856133
778.598359	0.858927
778.922647	0.856602
779.246889	0.857210
779.571086	0.861871
779.895236	0.863559
780.219339	0.861015
780.543397	0.858284
780.867409	0.856512
781.191374	0.858668
781.515294	0.858630
781.839167	0.858907
782.162995	0.862254
782.486776	0.858952
782.810511	0.859901
783.134201	0.863292
783.457844	0.861884
783.781441	0.863863
784.104993	0.870938
784.428498	0.870458
784.751958	0.866328
785.075372	0.868403
785.398739	0.871929
785.722061	0.868481
786.045337	0.865240
786.368568	0.869345
786.691752	0.872418
787.014891	0.857153
787.337983	0.848634
787.661030	0.841577
787.984031	0.823843
788.306987	0.810220
788.629897	0.812419
788.952760	0.816433
789.275579	0.821164
789.598351	0.835755
789.921078	0.849708
790.243759	0.851218
790.566395	0.856771
790.888984	0.863553
791.211529	0.868015
791.534027	0.872182
791.856480	0.873772
792.178888	0.878536
792.501249	0.881926
792.823566	0.881574
793.145836	0.882493
793.468062	0.884335
793.790241	0.884733
794.112375	0.882547
794.434464	0.878600
794.756507	0.877056
795.078505	0.877075
795.400457	0.872074
795.722364	0.859684
796.044226	0.852987
796.366042	0.851913
796.687812	0.855804
797.009538	0.851470
797.331218	0.854275
797.652852	0.859686
797.974442	0.864046
798.295986	0.863320
798.617484	0.866228
798.938938	0.870777
799.260346	0.876458
799.581709	0.877850
799.903026	0.881013
800.224299	0.880519
800.545526	0.884281
800.866708	0.888385
801.187845	0.892957
801.508936	0.892741
801.829983	0.889984
802.150984	0.892679
802.471940	0.898017
802.792851	0.897293
803.113717	0.897933
803.434538	0.896722
803.755314	0.898095
804.076045	0.899419
804.396731	0.899499
804.717372	0.899947
805.037967	0.902172
805.358518	0.899403
805.679024	0.897066
805.999485	0.896528
806.319901	0.897155
806.640272	0.898672
806.960598	0.897077
807.280879	0.892920
807.601115	0.892703
807.921306	0.896534
808.241453	0.896157
808.561554	0.894257
808.881611	0.893977
809.201623	0.895737
809.521590	0.896452
809.841513	0.897169
810.161390	0.897161
810.481223	0.896644
810.801011	0.901403
811.120755	0.902770
811.440453	0.901383
811.760107	0.900075
812.079716	0.900268
812.399281	0.903643
812.718801	0.906723
813.038276	0.906120
813.357707	0.906477
813.677093	0.903763
813.996434	0.907262
814.315731	0.909223
814.634983	0.908569
814.954191	0.907874
815.273354	0.904478
815.592473	0.900154
815.911547	0.901008
816.230577	0.899491
816.549562	0.895755
816.868502	0.897068
817.187399	0.892771
817.506250	0.887799
817.825058	0.890427
818.143821	0.886024
818.462539	0.881931
818.781213	0.872834
819.099843	0.861903
819.418429	0.846336
819.736970	0.828694
820.055466	0.809911
820.373919	0.783613
820.692327	0.750915
821.010691	0.715445
821.329011	0.637451
821.647286	0.521865
821.965517	0.407520
822.283704	0.364691
822.601847	0.366032
822.919945	0.401114
823.237999	0.435189
823.556010	0.482638
823.873976	0.538815
824.191897	0.589559
824.509775	0.632074
824.827609	0.678261
825.145398	0.700084
825.463144	0.703763
825.780845	0.686896
826.098502	0.667389
826.416116	0.621004
826.733685	0.577400
827.051210	0.568629
827.368692	0.583526
827.686129	0.621739
828.003522	0.674555
828.320872	0.722047
828.638177	0.766085
828.955439	0.798321
829.272656	0.820475
829.589830	0.837722
829.906960	0.853377
830.224046	0.865322
830.541088	0.877202
830.858086	0.881492
831.175041	0.887501
831.491952	0.886327
831.808819	0.883589
832.125642	0.876898
832.442421	0.861624
832.759157	0.839395
833.075849	0.793026
833.392497	0.729622
833.709101	0.688435
834.025662	0.697722
834.342179	0.728529
834.658653	0.769265
834.975083	0.804668
835.291469	0.832231
835.607811	0.853939
835.924110	0.870989
836.240366	0.887146
836.556578	0.901397
836.872746	0.908682
837.188871	0.914930
837.504952	0.920141
837.820990	0.923189
838.136984	0.927142
838.452935	0.929483
838.768842	0.931914
839.084706	0.924896
839.400526	0.899598
839.716303	0.858902
840.032037	0.836182
840.347727	0.839469
840.663373	0.857330
840.978977	0.879543
841.294537	0.902176
841.610054	0.918063
841.925527	0.926307
842.240957	0.932893
842.556344	0.940278
842.871687	0.946536
843.186987	0.950681
843.502244	0.950481
843.817458	0.952106
844.132629	0.956248
844.447756	0.959713
844.762840	0.960694
845.077881	0.959474
845.392879	0.959614
845.707833	0.963513
846.022745	0.965589
846.337613	0.966300
846.652438	0.966296
846.967221	0.963877
847.281960	0.965390
847.596656	0.967368
847.911309	0.966402
848.225919	0.968296
848.540485	0.968686
848.855009	0.969239
849.169490	0.968213
849.483928	0.968905
849.798323	0.970315
850.112675	0.968981
850.426984	0.970317
850.741251	0.970767
851.055474	0.970571
851.369654	0.969162
851.683792	0.969950
851.997887	0.971019
852.311938	0.971057
852.625947	0.970369
852.939914	0.968842
853.253837	0.969895
853.567718	0.970405
853.881555	0.971616
854.195350	0.968818
854.509103	0.970141
854.822812	0.969773
855.136479	0.969925
855.450103	0.970869
855.763685	0.969447
856.077224	0.969356
856.390720	0.970462
856.704173	0.970737
857.017584	0.969526
857.330953	0.967619
857.644278	0.968466
857.957561	0.967773
858.270802	0.969156
858.584000	0.968620
858.897155	0.966720
859.210268	0.967474
859.523339	0.968662
859.836367	0.970763
860.149352	0.970981
860.462295	0.969432
860.775195	0.970095
861.088054	0.969992
861.400869	0.971279
861.713642	0.971063
862.026373	0.971101
862.339062	0.972109
862.651708	0.968698
862.964312	0.967942
863.276873	0.970322
863.589392	0.967478
863.901869	0.967989
864.214303	0.965373
864.526696	0.964405
864.839045	0.963477
865.151353	0.961639
865.463619	0.963137
865.775842	0.963569
866.088023	0.961831
866.400162	0.962275
866.712258	0.961841
867.024313	0.963572
867.336325	0.963913
867.648296	0.963937
867.960224	0.962427
868.272110	0.962861
868.583954	0.964125
868.895755	0.963932
869.207515	0.962019
869.519233	0.960648
869.830909	0.961686
870.142542	0.963127
870.454134	0.961511
870.765684	0.961242
871.077191	0.957935
871.388657	0.959655
871.700081	0.959083
872.011463	0.958736
872.322803	0.958535
872.634101	0.957011
872.945357	0.954890
873.256571	0.953936
873.567744	0.952698
873.878874	0.954124
874.189963	0.952047
874.501010	0.951958
874.812015	0.948956
875.122979	0.951479
875.433900	0.953584
875.744780	0.954069
876.055618	0.951476
876.366415	0.950165
876.677169	0.949665
876.987882	0.951751
877.298554	0.951271
877.609183	0.947497
877.919771	0.946115
878.230317	0.943542
878.540822	0.940055
878.851285	0.935556
879.161707	0.927125
879.472087	0.914231
879.782425	0.898551
880.092722	0.863299
880.402977	0.811545
880.713191	0.750134
881.023363	0.690212
881.333494	0.656588
881.643583	0.629053
881.953631	0.628576
882.263637	0.657778
882.573602	0.696227
882.883526	0.723151
883.193408	0.746142
883.503248	0.768866
883.813048	0.797118
884.122806	0.827293
884.432522	0.850088
884.742197	0.869842
885.051831	0.881193
885.361424	0.890298
885.670975	0.903846
885.980485	0.913230
886.289954	0.919361
886.599382	0.924829
886.908768	0.928165
887.218113	0.934564
887.527417	0.938383
887.836680	0.942267
888.145901	0.943865
888.455082	0.946119
888.764221	0.950252
889.073319	0.952361
889.382376	0.952985
889.691392	0.953626
890.000366	0.952105
890.309300	0.954202
890.618193	0.953036
890.927044	0.952343
891.235855	0.952173
891.544625	0.951536
891.853353	0.951054
892.162041	0.949224
892.470687	0.942837
892.779293	0.937637
893.087858	0.934784
893.396381	0.925817
893.704864	0.913445
894.013306	0.888716
894.321707	0.860302
894.630068	0.847814
894.938387	0.841714
895.246665	0.844149
895.554903	0.857403
895.863100	0.870543
896.171256	0.886660
896.479371	0.905914
896.787446	0.918814
897.095480	0.924723
897.403473	0.928490
897.711425	0.932988
898.019336	0.940072
898.327207	0.943098
898.635038	0.945101
898.942827	0.945038
899.250576	0.947641
899.558284	0.952244
899.865952	0.953618
900.173579	0.955354
900.481165	0.955694
900.788711	0.959859
901.096216	0.961828
901.403681	0.961096
901.711105	0.963009
902.018489	0.963104
902.325832	0.963098
902.633135	0.962054
902.940397	0.955851
903.247619	0.943180
903.554800	0.917984
903.861941	0.878792
904.169041	0.841832
904.476101	0.824143
904.783121	0.824427
905.090100	0.841692
905.397039	0.862859
905.703938	0.884716
906.010796	0.904818
906.317614	0.921848
906.624391	0.934158
906.931129	0.944299
907.237826	0.951223
907.544483	0.959469
907.851099	0.963586
908.157675	0.968291
908.464211	0.971050
908.770707	0.972811
909.077163	0.974760
909.383578	0.975052
909.689954	0.975750
909.996289	0.976168
910.302584	0.978573
910.608839	0.979481
910.915054	0.979561
911.221229	0.978546
911.527363	0.976663
911.833458	0.978863
912.139513	0.977844
912.445527	0.975517
912.751502	0.974199
913.057436	0.972942
913.363331	0.969963
913.669186	0.965862
913.975000	0.960623
914.280775	0.954304
914.586510	0.948277
914.892205	0.934919
915.197859	0.913934
915.503475	0.885181
915.809050	0.866121
916.114585	0.860239
916.420081	0.857533
916.725536	0.853846
917.030952	0.863133
917.336328	0.875705
917.641665	0.890848
917.946961	0.907549
918.252218	0.918411
918.557435	0.927282
918.862612	0.936038
919.167750	0.942253
919.472848	0.947100
919.777906	0.952986
920.082925	0.958245
920.387904	0.961243
920.692843	0.963386
920.997743	0.963937
921.302603	0.967807
921.607423	0.969293
921.912204	0.972600
922.216946	0.971954
922.521647	0.972608
922.826310	0.974070
923.130932	0.978675
923.435516	0.979151
923.740059	0.979362
924.044564	0.979040
924.349028	0.981243
924.653454	0.982474
924.957840	0.984480
925.262186	0.983757
925.566493	0.983886
925.870761	0.985588
926.174989	0.986743
926.479178	0.989155
926.783328	0.988208
927.087438	0.989304
927.391509	0.987487
927.695541	0.990272
927.999533	0.990322
928.303486	0.989216
928.607400	0.991819
928.911275	0.990071
929.215110	0.990505
929.518906	0.990960
929.822663	0.989550
930.126381	0.990698
930.430060	0.990542
930.733699	0.991008
931.037299	0.989910
931.340861	0.991396
931.644383	0.989757
931.947866	0.990338
932.251309	0.991683
932.554714	0.991745
932.858080	0.990776
933.161407	0.990014
933.464694	0.991641
933.767943	0.990946
934.071153	0.992218
934.374323	0.992178
934.677455	0.991272
934.980548	0.992911
935.283602	0.991997
935.586617	0.991608
935.889593	0.990528
936.192530	0.991993
936.495428	0.990997
936.798287	0.992234
937.101108	0.991847
937.403890	0.989041
937.706632	0.989636
938.009336	0.986823
938.312002	0.987017
938.614628	0.984082
938.917216	0.983557
939.219765	0.981060
939.522275	0.982468
939.824747	0.983632
940.127179	0.983697
940.429573	0.984884
940.731929	0.984408
941.034246	0.984659
941.336524	0.986545
941.638763	0.986934
941.940964	0.987199
942.243126	0.987025
942.545250	0.987148
942.847335	0.988508
943.149381	0.987192
943.451389	0.988473
943.753359	0.988759
944.055290	0.990526
944.357182	0.990014
944.659036	0.989906
944.960851	0.990302
945.262628	0.991139
945.564367	0.990602
945.866067	0.989921
946.167729	0.990622
946.469352	0.988931
946.770937	0.989372
947.072484	0.990754
947.373992	0.990692
947.675462	0.990636
947.976893	0.989644
948.278286	0.991558
948.579641	0.991772
948.880958	0.991742
949.182236	0.991629
949.483476	0.992299
949.784678	0.990759
950.085841	0.992319
950.386967	0.990734
950.688054	0.990559
950.989103	0.991540
951.290114	0.989008
951.591087	0.990480
951.892021	0.990141
952.192917	0.988532
952.493776	0.987778
952.794596	0.989197
953.095378	0.989324
953.396122	0.988601
953.696828	0.987559
953.997496	0.990138
954.298126	0.990333
954.598718	0.991008
954.899272	0.991385
955.199788	0.990850
955.500266	0.992415
955.800706	0.991802
956.101108	0.993411
956.401472	0.994456
956.701798	0.995431
957.002087	0.993993
957.302337	0.994168
957.602550	0.996165
957.902724	0.994526
958.202861	0.995602
958.502960	0.996037
958.803022	0.993448
959.103045	0.996877
959.403031	0.996302
959.702979	0.995450
960.002889	0.996608
960.302762	0.995682
960.602596	0.997510
960.902393	0.995969
961.202153	0.997450
961.501875	0.997382
961.801559	0.996503
962.101205	0.996022
962.400814	0.996882
962.700385	0.997201
962.999918	0.996793
963.299414	0.996775
963.598873	0.997258
963.898293	0.996729
964.197677	0.996155
964.497022	0.997573
964.796331	0.997578
965.095601	0.997555
965.394835	0.997056
965.694030	0.997436
965.993189	0.998033
966.292309	0.997521
966.591393	0.998901
966.890439	0.998223
967.189447	0.996905
967.488419	0.998522
967.787353	0.997020
968.086249	0.997046
968.385108	0.997569
968.683930	0.996882
968.982714	0.997849
969.281462	0.998054
969.580172	0.996961
969.878844	0.997125
970.177480	0.996527
970.476078	0.997793
970.774639	0.996492
971.073162	0.997996
971.371649	0.996822
971.670098	0.996661
971.968510	0.998089
972.266885	0.996472
972.565223	0.998119
972.863524	0.996621
973.161788	0.996585
973.460014	0.998848
973.758204	0.995770
974.056356	0.997129
974.354471	0.995698
974.652550	0.997249
974.950591	0.997334
975.248595	0.996971
975.546563	0.996850
975.844493	0.998615
976.142386	0.996814
976.440243	0.998496
976.738062	0.998055
977.035845	0.998462
977.333590	0.996803
977.631299	0.997772
977.928971	0.997660
978.226606	0.996902
978.524204	0.996477
978.821765	0.997614
979.119290	0.997212
979.416777	0.997806
979.714228	0.998204
980.011642	0.996911
980.309020	0.997983
980.606360	0.997051
980.903664	0.998322
981.200931	0.995273
981.498162	0.995027
981.795356	0.994785
982.092513	0.995024
982.389633	0.996059
982.686717	0.992041
982.983764	0.992387
983.280775	0.991400
983.577749	0.991328
983.874686	0.992820
984.171587	0.992219
984.468451	0.995280
984.765279	0.995493
985.062070	0.995305
985.358824	0.994694
985.655543	0.994489
985.952224	0.996662
986.248869	0.997907
986.545478	0.997113
986.842050	0.999054
987.138586	0.996977
987.435086	0.997791
987.731549	0.999903
988.027975	0.998803
988.324366	0.998254
988.620719	0.998365
988.917037	0.996674
989.213318	0.999118
989.509563	0.999679
989.805772	0.998525
990.101944	0.999407
990.398080	0.998028
990.694180	0.998157
990.990244	0.997914
991.286271	0.998464
991.582262	0.999376
991.878217	0.998668
992.174136	0.999187
992.470019	0.999709
992.765865	0.998136
993.061676	0.999045
993.357450	0.998451
993.653188	0.997589
993.948890	0.998225
994.244556	0.999217
994.540186	0.997575
994.835780	0.997425
995.131337	0.998131
995.426859	0.997839
995.722345	0.999058
996.017795	0.995820
996.313208	0.997013
996.608586	0.996542
996.903928	0.997775
997.199234	0.997319
997.494504	0.997158
997.789738	0.997692
998.084936	0.996702
998.380099	0.997902
998.675225	0.997092
998.970316	0.998456
999.265371	0.998369
999.560390	0.998276
999.855373	0.999171
1000.150320	0.999046
1000.445232	0.999157
1000.740108	0.998202
1001.034948	0.998442
1001.329752	0.999049
1001.624521	0.998635
1001.919254	1.000224
1002.213951	0.998463
1002.508613	0.998806
1002.803239	0.999635
1003.097829	0.999640
1003.392384	0.999082
1003.686903	0.998855
1003.981386	0.998668
1004.275834	0.999643
1004.570246	0.999042
1004.864623	1.000406
1005.158964	0.999990
1005.453270	1.000268
1005.747540	0.998144
1006.041775	0.998118
1006.335974	1.000565
1006.630138	0.999773
1006.924266	0.999848
1007.218359	1.000978
1007.512416	0.999591
1007.806438	1.000597
1008.100425	1.000303
1008.394376	1.000535
1008.688292	0.999661
1008.982172	1.000147
1009.276017	0.999800
1009.569827	0.999413
1009.863602	0.998942
1010.157341	1.000222
1010.451045	0.999705
1010.744714	0.999361
1011.038347	0.999285
1011.331945	0.998847
1011.625508	0.998354
1011.919036	0.998873
1012.212528	0.999504
1012.505986	0.998178
1012.799408	0.999739
1013.092795	0.999582
1013.386147	0.999377
1013.679464	0.999036
1013.972745	0.998498
1014.265992	0.998543
1014.559204	0.999113
1014.852380	0.999580
1015.145521	0.999507
1015.438628	0.999281
1015.731699	1.000239
1016.024736	1.000302
1016.317737	0.999475
1016.610703	0.999422
1016.903635	1.001106
1017.196531	1.000115
1017.489393	0.999998
1017.782219	1.000142
1018.075011	0.999098
1018.367768	0.999388
1018.660490	1.000551
1018.953177	1.000551
1019.245829	1.000551
