Dividing Wavelength (nm)	Counts (n)	Blue Motor Position (mm): 0.000000	Red Motor Position (mm): 18.500000	
326.493990	1.000413
326.888308	1.000413
327.282561	1.000413
327.676750	0.999646
328.070874	0.998843
328.464933	0.999863
328.858929	0.998648
329.252859	0.998770
329.646726	0.999784
330.040528	0.998906
330.434265	0.998865
330.827938	1.000374
331.221547	1.000678
331.615091	0.999747
332.008571	1.000714
332.401986	1.000636
332.795338	0.999717
333.188625	0.998330
333.581847	1.000924
333.975006	0.999834
334.368100	0.998741
334.761129	1.000199
335.154095	1.001220
335.546996	0.997391
335.939833	0.993528
336.332606	0.992931
336.725315	0.994721
337.117960	0.995259
337.510540	0.993488
337.903056	0.994723
338.295508	0.993510
338.687896	0.993353
339.080220	0.994487
339.472480	0.994199
339.864676	0.993836
340.256807	0.993316
340.648875	0.994195
341.040879	0.994796
341.432818	0.993547
341.824694	0.994270
342.216506	0.995257
342.608253	0.995045
342.999937	0.993774
343.391557	0.993309
343.783113	0.995167
344.174605	0.993648
344.566033	0.994833
344.957397	0.993611
345.348697	0.993571
345.739934	0.993276
346.131106	0.993861
346.522215	0.994529
346.913260	0.993685
347.304241	0.994085
347.695159	0.993496
348.086012	0.993581
348.476802	0.994890
348.867528	0.994862
349.258191	0.992824
349.648789	0.995818
350.039324	0.993520
350.429796	0.995236
350.820203	0.994147
351.210548	0.993983
351.600828	0.993676
351.991045	0.993849
352.381198	0.991816
352.771288	0.993862
353.161314	0.994446
353.551276	0.994867
353.941175	0.994208
354.331010	0.993603
354.720782	0.994784
355.110490	0.993165
355.500135	0.995127
355.889717	0.993826
356.279235	0.993822
356.668689	0.993600
357.058080	0.993555
357.447408	0.995480
357.836672	0.994078
358.225873	0.994739
358.615010	0.993314
359.004084	0.995519
359.393095	0.994164
359.782043	0.994539
360.170927	0.995193
360.559748	0.994679
360.948505	0.993197
361.337199	0.994289
361.725830	0.994775
362.114398	0.993089
362.502903	0.994265
362.891344	0.994444
363.279722	0.994571
363.668037	0.995056
364.056289	0.993219
364.444478	0.995595
364.832603	0.995198
365.220665	0.994217
365.608665	0.994409
365.996601	0.993735
366.384474	0.993769
366.772284	0.994661
367.160031	0.992962
367.547715	0.992593
367.935336	0.995045
368.322893	0.993543
368.710388	0.993717
369.097820	0.992822
369.485189	0.993586
369.872495	0.992452
370.259738	0.992655
370.646918	0.993915
371.034035	0.994969
371.421090	0.994134
371.808081	0.993586
372.195010	0.993685
372.581875	0.993923
372.968678	0.995184
373.355418	0.993896
373.742096	0.993368
374.128710	0.994302
374.515262	0.994046
374.901751	0.994711
375.288177	0.994202
375.674540	0.995218
376.060841	0.994372
376.447079	0.994583
376.833254	0.994402
377.219367	0.994868
377.605417	0.993869
377.991404	0.994396
378.377329	0.994097
378.763191	0.994149
379.148991	0.995703
379.534727	0.994996
379.920402	0.994143
380.306013	0.995380
380.691563	0.995621
381.077049	0.994168
381.462474	0.995157
381.847835	0.994275
382.233134	0.995047
382.618371	0.994591
383.003545	0.994375
383.388657	0.995214
383.773706	0.995225
384.158693	0.994994
384.543618	0.995041
384.928480	0.995095
385.313280	0.994318
385.698017	0.995262
386.082692	0.995294
386.467305	0.995886
386.851856	0.994302
387.236344	0.994214
387.620770	0.994668
388.005133	0.994430
388.389435	0.995946
388.773674	0.994870
389.157851	0.995356
389.541965	0.994986
389.926018	0.994486
390.310008	0.995735
390.693936	0.995320
391.077802	0.995472
391.461606	0.994538
391.845348	0.995275
392.229027	0.996280
392.612645	0.995025
392.996200	0.995176
393.379694	0.995463
393.763125	0.994774
394.146494	0.995620
394.529801	0.995294
394.913047	0.995181
395.296230	0.995030
395.679351	0.994563
396.062410	0.993411
396.445408	0.994470
396.828343	0.993994
397.211217	0.994781
397.594028	0.994465
397.976778	0.994200
398.359466	0.994175
398.742092	0.993997
399.124656	0.994034
399.507158	0.994558
399.889598	0.994568
400.271977	0.994828
400.654294	0.994343
401.036549	0.994652
401.418742	0.994792
401.800874	0.993317
402.182944	0.994253
402.564952	0.992377
402.946898	0.994789
403.328783	0.992888
403.710606	0.992900
404.092367	0.992673
404.474067	0.992187
404.855705	0.991446
405.237282	0.990036
405.618797	0.989400
406.000250	0.988594
406.381642	0.987766
406.762972	0.986738
407.144240	0.985698
407.525447	0.983350
407.906593	0.981070
408.287677	0.979848
408.668700	0.977649
409.049661	0.974089
409.430560	0.971603
409.811399	0.968821
410.192176	0.964255
410.572891	0.960946
410.953545	0.956521
411.334138	0.952711
411.714669	0.949793
412.095139	0.945713
412.475547	0.940730
412.855894	0.935923
413.236180	0.930663
413.616405	0.926983
413.996568	0.920700
414.376670	0.915266
414.756711	0.910573
415.136691	0.904346
415.516609	0.895890
415.896466	0.888825
416.276262	0.881262
416.655997	0.875366
417.035670	0.863356
417.415283	0.854351
417.794834	0.847268
418.174324	0.842661
418.553753	0.838296
418.933121	0.822802
419.312428	0.812936
419.691674	0.806876
420.070859	0.793688
420.449983	0.788420
420.829045	0.775437
421.208047	0.771460
421.586988	0.758805
421.965867	0.748842
422.344686	0.734083
422.723444	0.732386
423.102141	0.732097
423.480777	0.709437
423.859352	0.710816
424.237866	0.689273
424.616319	0.681530
424.994712	0.667964
425.373044	0.665818
425.751314	0.648694
426.129524	0.650105
426.507673	0.631184
426.885762	0.620462
427.263789	0.614987
427.641756	0.614751
428.019662	0.599934
428.397508	0.591253
428.775292	0.586528
429.153016	0.573472
429.530679	0.571342
429.908282	0.559728
430.285824	0.562177
430.663305	0.536899
431.040726	0.548288
431.418086	0.543655
431.795385	0.530849
432.172624	0.524479
432.549802	0.520065
432.926920	0.513523
433.303977	0.507984
433.680974	0.501925
434.057910	0.495185
434.434786	0.491153
434.811601	0.488954
435.188355	0.469858
435.565050	0.474669
435.941683	0.473565
436.318257	0.455313
436.694770	0.453312
437.071222	0.448593
437.447614	0.450666
437.823946	0.454340
438.200218	0.441717
438.576429	0.449594
438.952580	0.440229
439.328670	0.436117
439.704700	0.440871
440.080670	0.440388
440.456580	0.421114
440.832429	0.426985
441.208218	0.437018
441.583947	0.425765
441.959616	0.424457
442.335224	0.427990
442.710773	0.419098
443.086261	0.416144
443.461689	0.429181
443.837057	0.418454
444.212365	0.408599
444.587612	0.414981
444.962800	0.404615
445.337927	0.405605
445.712995	0.431245
446.088002	0.394158
446.462949	0.403900
446.837837	0.408343
447.212664	0.397202
447.587431	0.388706
447.962139	0.359150
448.336786	0.318743
448.711374	0.328841
449.085901	0.372522
449.460369	0.376905
449.834776	0.380107
450.209124	0.359381
450.583412	0.352066
450.957640	0.344915
451.331808	0.356338
451.705917	0.379945
452.079965	0.384076
452.453954	0.372120
452.827883	0.378703
453.201752	0.373960
453.575562	0.385206
453.949311	0.373945
454.323001	0.379433
454.696632	0.375464
455.070202	0.367898
455.443713	0.359993
455.817164	0.354740
456.190556	0.350386
456.563888	0.347220
456.937160	0.344863
457.310373	0.362164
457.683526	0.360978
458.056619	0.366819
458.429653	0.367311
458.802628	0.370499
459.175542	0.364825
459.548398	0.347531
459.921194	0.340137
460.293930	0.339962
460.666607	0.317458
461.039224	0.306257
461.411782	0.301751
461.784280	0.301054
462.156719	0.305174
462.529099	0.309759
462.901419	0.325383
463.273680	0.330298
463.645882	0.329283
464.018024	0.335486
464.390106	0.328047
464.762130	0.313123
465.134094	0.296104
465.505999	0.265243
465.877845	0.235863
466.249631	0.223170
466.621358	0.230518
466.993026	0.244365
467.364634	0.250537
467.736184	0.258972
468.107674	0.267673
468.479105	0.266976
468.850477	0.273683
469.221790	0.280539
469.593043	0.290829
469.964238	0.295564
470.335373	0.295115
470.706449	0.293471
471.077467	0.293881
471.448425	0.256021
471.819324	0.231843
472.190164	0.231132
472.560945	0.259650
472.931667	0.282089
473.302330	0.285919
473.672934	0.297968
474.043479	0.286209
474.413965	0.288007
474.784393	0.291702
475.154761	0.286477
475.525070	0.283437
475.895321	0.289317
476.265513	0.283794
476.635645	0.278792
477.005719	0.278981
477.375734	0.275421
477.745691	0.268748
478.115588	0.265444
478.485427	0.258890
478.855207	0.245785
479.224928	0.228734
479.594591	0.216533
479.964194	0.220085
480.333739	0.221307
480.703226	0.222713
481.072653	0.221093
481.442022	0.216831
481.811333	0.213330
482.180584	0.216924
482.549777	0.221971
482.918912	0.225321
483.287988	0.225268
483.657005	0.224746
484.025964	0.231368
484.394864	0.228785
484.763706	0.229062
485.132489	0.233954
485.501213	0.234673
485.869879	0.233059
486.238487	0.236544
486.607036	0.234234
486.975527	0.238790
487.343959	0.234612
487.712333	0.233586
488.080648	0.235014
488.448905	0.234372
488.817104	0.235569
489.185244	0.230026
489.553326	0.226870
489.921350	0.216965
490.289315	0.199459
490.657222	0.194530
491.025070	0.195616
491.392861	0.197409
491.760593	0.203160
492.128267	0.208916
492.495883	0.214508
492.863440	0.220738
493.230939	0.227124
493.598380	0.228104
493.965763	0.230330
494.333088	0.232701
494.700354	0.233822
495.067563	0.233029
495.434713	0.236546
495.801805	0.234161
496.168839	0.235927
496.535815	0.236736
496.902733	0.237088
497.269593	0.238663
497.636395	0.236544
498.003139	0.236727
498.369825	0.239707
498.736453	0.236156
499.103023	0.237607
499.469535	0.236995
499.835989	0.237330
500.202385	0.238286
500.568723	0.241501
500.935003	0.236602
501.301226	0.240912
501.667390	0.235091
502.033497	0.233343
502.399546	0.236537
502.765537	0.237891
503.131470	0.236232
503.497345	0.232857
503.863163	0.241539
504.228923	0.234417
504.594625	0.233365
504.960269	0.238797
505.325856	0.233999
505.691385	0.238182
506.056856	0.235029
506.422270	0.234378
506.787625	0.236842
507.152924	0.234159
507.518164	0.234550
507.883347	0.236350
508.248472	0.238138
508.613540	0.233112
508.978550	0.235805
509.343503	0.236051
509.708398	0.233812
510.073236	0.231605
510.438016	0.231499
510.802738	0.232400
511.167403	0.231421
511.532010	0.233409
511.896561	0.228827
512.261053	0.227655
512.625488	0.229734
512.989866	0.229853
513.354186	0.230204
513.718449	0.232029
514.082655	0.228510
514.446803	0.230520
514.810894	0.228319
515.174927	0.231267
515.538904	0.230419
515.902822	0.227327
516.266684	0.229814
516.630488	0.231201
516.994235	0.229529
517.357925	0.228293
517.721558	0.226583
518.085133	0.226370
518.448651	0.226316
518.812112	0.228557
519.175516	0.228036
519.538863	0.225704
519.902152	0.227435
520.265385	0.224585
520.628560	0.226159
520.991678	0.226470
521.354739	0.225524
521.717743	0.226487
522.080690	0.227211
522.443580	0.224392
522.806413	0.225480
523.169189	0.224608
523.531908	0.223613
523.894569	0.227115
524.257174	0.227005
524.619722	0.224842
524.982213	0.226031
525.344647	0.224902
525.707025	0.225804
526.069345	0.223896
526.431608	0.225565
526.793815	0.223566
527.155964	0.227523
527.518057	0.226220
527.880093	0.227452
528.242072	0.226037
528.603995	0.227921
528.965860	0.229579
529.327669	0.228445
529.689421	0.229471
530.051117	0.230323
530.412755	0.227960
530.774337	0.230213
531.135862	0.230642
531.497331	0.229858
531.858743	0.232753
532.220098	0.229674
532.581396	0.232072
532.942638	0.232596
533.303824	0.233716
533.664953	0.233366
534.026025	0.234878
534.387040	0.233072
534.747999	0.232988
535.108902	0.231856
535.469748	0.236643
535.830537	0.234760
536.191270	0.235120
536.551947	0.234803
536.912567	0.234586
537.273131	0.236373
537.633638	0.236369
537.994089	0.236826
538.354483	0.238110
538.714821	0.234672
539.075103	0.234666
539.435328	0.235739
539.795497	0.239028
540.155609	0.235837
540.515665	0.233801
540.875665	0.239610
541.235609	0.237964
541.595496	0.238080
541.955328	0.234615
542.315102	0.237500
542.674821	0.238275
543.034483	0.238535
543.394090	0.237992
543.753640	0.239958
544.113134	0.235190
544.472571	0.238127
544.831953	0.235104
545.191278	0.239473
545.550548	0.238786
545.909761	0.235455
546.268918	0.236341
546.628019	0.234499
546.987064	0.237496
547.346053	0.239138
547.704986	0.237061
548.063863	0.237399
548.422684	0.237583
548.781449	0.239353
549.140158	0.236887
549.498811	0.239713
549.857408	0.242672
550.215949	0.237810
550.574434	0.240580
550.932864	0.238688
551.291237	0.237324
551.649555	0.238496
552.007817	0.238487
552.366022	0.239423
552.724173	0.239550
553.082267	0.239837
553.440305	0.236729
553.798288	0.241101
554.156215	0.237777
554.514086	0.238445
554.871902	0.241369
555.229661	0.240836
555.587365	0.241111
555.945014	0.243603
556.302606	0.240782
556.660143	0.243368
557.017625	0.239661
557.375050	0.242040
557.732421	0.238838
558.089735	0.241291
558.446994	0.241259
558.804197	0.240029
559.161345	0.240579
559.518437	0.243841
559.875474	0.241378
560.232455	0.240805
560.589381	0.242053
560.946251	0.242343
561.303065	0.239591
561.659825	0.241089
562.016528	0.242368
562.373177	0.245578
562.729770	0.242849
563.086307	0.245030
563.442789	0.242465
563.799216	0.245435
564.155587	0.244339
564.511904	0.245374
564.868164	0.245458
565.224370	0.245249
565.580520	0.246914
565.936615	0.247028
566.292654	0.249725
566.648638	0.247017
567.004567	0.247733
567.360441	0.248404
567.716260	0.250479
568.072023	0.248428
568.427732	0.248888
568.783385	0.251422
569.138982	0.249627
569.494525	0.248984
569.850013	0.252054
570.205445	0.250439
570.560823	0.252951
570.916145	0.254909
571.271412	0.252984
571.626625	0.254508
571.981782	0.254722
572.336884	0.255812
572.691931	0.255654
573.046923	0.256897
573.401860	0.258075
573.756743	0.259716
574.111570	0.258555
574.466342	0.259126
574.821059	0.258193
575.175722	0.261033
575.530330	0.261185
575.884882	0.261093
576.239380	0.263012
576.593823	0.263563
576.948211	0.263019
577.302544	0.265926
577.656823	0.265656
578.011047	0.266153
578.365216	0.266580
578.719330	0.268749
579.073389	0.268515
579.427394	0.269762
579.781344	0.270516
580.135239	0.271847
580.489080	0.271655
580.842866	0.274613
581.196597	0.274542
581.550273	0.272818
581.903895	0.274252
582.257463	0.272504
582.610975	0.275643
582.964434	0.275196
583.317837	0.277790
583.671186	0.278181
584.024481	0.278042
584.377721	0.280571
584.730906	0.281233
585.084037	0.280273
585.437113	0.282042
585.790135	0.281667
586.143103	0.284966
586.496016	0.285727
586.848874	0.283131
587.201679	0.283691
587.554428	0.287221
587.907124	0.285534
588.259765	0.286643
588.612352	0.287186
588.964884	0.290917
589.317362	0.290678
589.669786	0.290426
590.022155	0.288767
590.374470	0.288238
590.726731	0.290434
591.078937	0.294990
591.431090	0.291321
591.783188	0.295748
592.135232	0.295795
592.487222	0.296084
592.839157	0.294432
593.191038	0.296581
593.542866	0.298637
593.894639	0.301898
594.246358	0.299677
594.598022	0.299158
594.949633	0.303069
595.301190	0.303939
595.652692	0.303039
596.004141	0.299339
596.355535	0.307107
596.706876	0.307427
597.058162	0.310129
597.409395	0.307336
597.760573	0.304621
598.111698	0.308218
598.462768	0.308585
598.813785	0.310240
599.164748	0.311282
599.515657	0.311159
599.866511	0.314728
600.217312	0.310084
600.568060	0.315774
600.918753	0.311708
601.269392	0.312909
601.619978	0.315930
601.970510	0.313925
602.320988	0.313830
602.671412	0.311902
603.021783	0.313804
603.372100	0.315600
603.722363	0.314917
604.072572	0.315909
604.422728	0.315880
604.772830	0.317853
605.122878	0.317301
605.472872	0.317878
605.822813	0.316296
606.172701	0.318933
606.522534	0.316621
606.872314	0.316577
607.222041	0.317175
607.571714	0.315161
607.921333	0.316978
608.270899	0.316740
608.620411	0.313360
608.969870	0.317079
609.319276	0.317433
609.668627	0.317266
610.017926	0.315605
610.367171	0.314618
610.716362	0.315099
611.065500	0.315516
611.414585	0.314055
611.763616	0.314522
612.112594	0.315357
612.461518	0.314148
612.810389	0.311981
613.159207	0.314350
613.507971	0.316303
613.856682	0.311771
614.205340	0.313440
614.553945	0.310255
614.902496	0.314042
615.250994	0.311962
615.599439	0.313159
615.947830	0.312417
616.296169	0.313536
616.644454	0.312887
616.992686	0.312843
617.340864	0.310450
617.688990	0.314648
618.037063	0.311119
618.385082	0.312869
618.733048	0.309812
619.080961	0.311830
619.428821	0.311702
619.776628	0.311048
620.124382	0.312964
620.472083	0.313045
620.819731	0.312729
621.167326	0.316997
621.514868	0.316076
621.862357	0.320630
622.209793	0.320223
622.557176	0.322243
622.904506	0.323575
623.251783	0.325720
623.599007	0.327813
623.946179	0.327644
624.293297	0.329445
624.640363	0.333375
624.987376	0.333847
625.334336	0.336566
625.681243	0.338642
626.028097	0.339309
626.374899	0.340199
626.721647	0.340809
627.068343	0.343803
627.414987	0.345067
627.761577	0.346956
628.108115	0.344898
628.454600	0.350454
628.801032	0.348140
629.147412	0.349809
629.493739	0.350310
629.840014	0.353482
630.186236	0.350731
630.532405	0.356448
630.878521	0.353607
631.224585	0.355767
631.570597	0.359746
631.916556	0.357827
632.262462	0.358409
632.608316	0.360276
632.954117	0.361310
633.299866	0.361755
633.645562	0.362277
633.991206	0.366714
634.336797	0.369605
634.682336	0.371853
635.027823	0.373149
635.373257	0.374091
635.718639	0.377832
636.063968	0.376880
636.409245	0.383051
636.754470	0.383265
637.099642	0.385434
637.444762	0.389103
637.789829	0.388135
638.134845	0.391403
638.479808	0.392115
638.824719	0.391926
639.169577	0.396153
639.514383	0.394854
639.859137	0.399374
640.203839	0.399043
640.548489	0.399880
640.893086	0.400970
641.237632	0.402308
641.582125	0.401222
641.926566	0.402575
642.270955	0.402942
642.615292	0.403106
642.959576	0.402179
643.303809	0.402726
643.647990	0.402222
643.992118	0.402846
644.336195	0.406457
644.680219	0.404944
645.024192	0.405517
645.368112	0.399256
645.711981	0.398499
646.055797	0.393117
646.399562	0.395831
646.743274	0.387849
647.086935	0.385476
647.430544	0.385322
647.774101	0.384413
648.117606	0.383673
648.461059	0.384436
648.804460	0.387194
649.147810	0.392010
649.491108	0.394044
649.834354	0.394949
650.177548	0.400453
650.520690	0.405757
650.863781	0.407045
651.206820	0.406313
651.549807	0.411115
651.892742	0.414631
652.235626	0.414594
652.578458	0.415618
652.921238	0.421637
653.263967	0.419537
653.606644	0.423924
653.949269	0.422569
654.291843	0.427456
654.634365	0.423805
654.976836	0.426944
655.319255	0.427140
655.661622	0.428644
656.003938	0.428492
656.346203	0.432021
656.688416	0.429965
657.030577	0.433175
657.372687	0.434784
657.714746	0.436035
658.056753	0.432634
658.398708	0.436512
658.740612	0.437628
659.082465	0.433328
659.424266	0.434616
659.766016	0.433643
660.107715	0.436676
660.449362	0.435118
660.790958	0.436437
661.132503	0.436230
661.473996	0.434348
661.815438	0.435676
662.156829	0.434994
662.498168	0.435563
662.839456	0.437686
663.180693	0.435607
663.521879	0.434894
663.863013	0.436008
664.204097	0.434427
664.545129	0.431622
664.886110	0.432309
665.227040	0.429367
665.567918	0.431612
665.908746	0.429639
666.249522	0.429069
666.590248	0.430613
666.930922	0.429239
667.271545	0.427306
667.612118	0.427740
667.952639	0.429054
668.293109	0.427539
668.633528	0.431050
668.973896	0.430461
669.314213	0.431422
669.654480	0.432664
669.994695	0.433338
670.334859	0.433651
670.674973	0.433806
671.015035	0.434536
671.355047	0.433892
671.695008	0.435507
672.034918	0.437192
672.374777	0.436142
672.714585	0.437695
673.054342	0.437131
673.394049	0.438008
673.733705	0.435132
674.073310	0.436827
674.412864	0.439448
674.752368	0.439803
675.091820	0.440127
675.431223	0.444579
675.770574	0.444437
676.109875	0.447567
676.449125	0.447445
676.788324	0.449615
677.127473	0.454771
677.466571	0.454400
677.805619	0.456502
678.144616	0.457623
678.483562	0.458756
678.822458	0.461537
679.161303	0.462825
679.500098	0.463035
679.838842	0.464869
680.177535	0.464764
680.516179	0.463125
680.854771	0.461800
681.193314	0.455740
681.531805	0.447260
681.870247	0.435369
682.208638	0.427462
682.546978	0.426756
682.885268	0.428205
683.223508	0.434984
683.561697	0.438299
683.899836	0.441275
684.237925	0.444462
684.575963	0.446870
684.913951	0.450363
685.251889	0.446038
685.589776	0.447624
685.927614	0.450821
686.265401	0.444390
686.603137	0.445540
686.940824	0.440086
687.278460	0.438783
687.616046	0.437142
687.953582	0.432750
688.291068	0.433824
688.628504	0.429509
688.965889	0.431886
689.303224	0.435920
689.640510	0.439806
689.977745	0.445744
690.314930	0.453613
690.652065	0.458380
690.989150	0.465755
691.326185	0.471809
691.663170	0.476203
692.000105	0.483643
692.336990	0.490086
692.673825	0.493304
693.010610	0.500054
693.347345	0.505732
693.684030	0.507232
694.020665	0.511709
694.357251	0.520698
694.693786	0.519916
695.030272	0.524423
695.366707	0.527166
695.703093	0.531099
696.039429	0.529258
696.375716	0.530791
696.711952	0.533862
697.048139	0.535779
697.384276	0.537995
697.720363	0.535705
698.056400	0.534425
698.392388	0.540141
698.728326	0.543493
699.064214	0.546160
699.400053	0.546555
699.735842	0.550783
700.071581	0.553850
700.407270	0.556427
700.742910	0.558932
701.078501	0.564800
701.414042	0.565355
701.749533	0.568784
702.084974	0.577342
702.420366	0.569415
702.755709	0.577281
703.091002	0.585215
703.426246	0.578683
703.761440	0.584226
704.096584	0.589695
704.431679	0.586483
704.766725	0.587950
705.101721	0.589560
705.436668	0.586028
705.771565	0.592739
706.106413	0.589955
706.441212	0.584809
706.775961	0.583675
707.110661	0.587178
707.445311	0.583056
707.779913	0.580156
708.114465	0.578563
708.448967	0.575124
708.783421	0.568052
709.117825	0.561783
709.452180	0.562756
709.786485	0.555962
710.120742	0.545846
710.454949	0.547662
710.789107	0.539923
711.123216	0.531535
711.457275	0.532509
711.791286	0.523295
712.125247	0.522096
712.459159	0.533003
712.793023	0.525960
713.126837	0.530068
713.460602	0.530398
713.794318	0.539806
714.127985	0.538321
714.461602	0.548130
714.795171	0.551459
715.128691	0.560071
715.462162	0.566828
715.795584	0.572441
716.128957	0.575370
716.462281	0.582123
716.795556	0.584855
717.128782	0.590700
717.461960	0.600264
717.795088	0.598999
718.128167	0.604715
718.461198	0.613834
718.794180	0.614605
719.127113	0.617008
719.459997	0.620330
719.792833	0.627344
720.125619	0.628735
720.458357	0.633943
720.791046	0.634061
721.123686	0.636898
721.456278	0.643224
721.788821	0.641654
722.121315	0.645695
722.453761	0.649965
722.786158	0.648150
723.118506	0.644720
723.450805	0.651667
723.783056	0.647930
724.115259	0.646151
724.447412	0.644435
724.779518	0.646175
725.111574	0.645364
725.443582	0.641003
725.775542	0.642197
726.107453	0.634365
726.439315	0.634867
726.771129	0.632466
727.102895	0.626288
727.434612	0.619381
727.766281	0.617330
728.097901	0.616884
728.429473	0.615728
728.760996	0.614433
729.092471	0.615446
729.423897	0.618499
729.755276	0.618056
730.086606	0.618374
730.417887	0.612607
730.749120	0.602886
731.080305	0.593998
731.411442	0.590132
731.742530	0.595546
732.073570	0.594056
732.404562	0.586240
732.735506	0.588346
733.066401	0.592995
733.397249	0.601515
733.728048	0.613140
734.058798	0.625899
734.389501	0.636346
734.720156	0.646002
735.050762	0.653174
735.381320	0.654903
735.711831	0.664799
736.042293	0.669047
736.372707	0.664938
736.703073	0.669430
737.033391	0.672085
737.363661	0.668809
737.693883	0.663881
738.024056	0.662499
738.354182	0.663730
738.684260	0.652195
739.014290	0.648382
739.344272	0.649688
739.674207	0.643041
740.004093	0.642307
740.333931	0.642711
740.663722	0.642384
740.993464	0.642715
741.323159	0.647189
741.652806	0.652974
741.982405	0.656991
742.311956	0.661504
742.641460	0.663832
742.970915	0.667734
743.300323	0.674682
743.629683	0.681422
743.958996	0.683062
744.288260	0.687739
744.617477	0.693229
744.946647	0.695404
745.275768	0.700400
745.604842	0.700667
745.933869	0.709960
746.262847	0.710061
746.591778	0.705320
746.920662	0.710485
747.249498	0.717879
747.578286	0.708460
747.907027	0.704433
748.235720	0.705098
748.564365	0.699218
748.892963	0.699126
749.221514	0.702516
749.550017	0.708072
749.878473	0.707677
750.206881	0.713074
750.535242	0.715076
750.863555	0.714776
751.191821	0.716451
751.520039	0.719174
751.848210	0.723899
752.176334	0.716892
752.504411	0.716174
752.832440	0.723154
753.160421	0.728110
753.488356	0.726735
753.816243	0.723075
754.144082	0.732724
754.471875	0.735124
754.799620	0.730529
755.127318	0.731884
755.454969	0.732473
755.782572	0.730641
756.110129	0.736108
756.437638	0.739154
756.765100	0.735601
757.092515	0.733542
757.419882	0.732483
757.747203	0.737950
758.074477	0.737293
758.401703	0.734113
758.728882	0.729052
759.056014	0.728608
759.383099	0.727165
759.710138	0.728467
760.037129	0.724564
760.364073	0.719733
760.690970	0.721256
761.017820	0.726994
761.344623	0.722845
761.671379	0.713415
761.998088	0.701886
762.324751	0.678991
762.651366	0.637483
762.977935	0.570184
763.304456	0.518721
763.630931	0.508857
763.957359	0.548047
764.283740	0.592559
764.610074	0.620141
764.936362	0.650348
765.262602	0.676585
765.588796	0.698928
765.914943	0.716777
766.241044	0.734698
766.567097	0.741366
766.893104	0.751137
767.219064	0.756414
767.544978	0.764439
767.870845	0.777094
768.196665	0.780569
768.522438	0.778726
768.848165	0.780256
769.173846	0.789047
769.499479	0.793637
769.825066	0.796800
770.150607	0.802568
770.476101	0.797640
770.801548	0.799179
771.126949	0.809237
771.452303	0.813550
771.777611	0.813250
772.102872	0.812463
772.428087	0.817633
772.753256	0.820246
773.078378	0.822641
773.403453	0.830976
773.728482	0.835766
774.053465	0.829981
774.378401	0.832406
774.703291	0.841787
775.028135	0.841102
775.352932	0.842853
775.677683	0.844644
776.002388	0.846506
776.327046	0.845775
776.651658	0.849246
776.976224	0.852397
777.300743	0.853102
777.625216	0.854557
777.949643	0.856408
778.274024	0.857380
778.598359	0.857099
778.922647	0.856079
779.246889	0.857160
779.571086	0.860714
779.895236	0.863317
780.219339	0.860552
780.543397	0.857897
780.867409	0.856507
781.191374	0.857672
781.515294	0.858384
781.839167	0.858063
782.162995	0.861592
782.486776	0.857964
782.810511	0.859841
783.134201	0.863151
783.457844	0.860759
783.781441	0.864076
784.104993	0.870156
784.428498	0.870881
784.751958	0.865030
785.075372	0.868004
785.398739	0.872084
785.722061	0.868597
786.045337	0.863936
786.368568	0.869102
786.691752	0.871117
787.014891	0.856003
787.337983	0.848289
787.661030	0.841386
787.984031	0.823525
788.306987	0.810963
788.629897	0.812668
788.952760	0.816721
789.275579	0.820678
789.598351	0.836480
789.921078	0.849065
790.243759	0.850971
790.566395	0.856665
790.888984	0.863168
791.211529	0.868516
791.534027	0.870997
791.856480	0.874573
792.178888	0.878009
792.501249	0.881574
792.823566	0.882778
793.145836	0.882294
793.468062	0.884091
793.790241	0.883500
794.112375	0.882621
794.434464	0.878448
794.756507	0.877760
795.078505	0.876963
795.400457	0.871374
795.722364	0.860028
796.044226	0.852301
796.366042	0.851105
796.687812	0.855667
797.009538	0.850916
797.331218	0.854484
797.652852	0.859202
797.974442	0.863925
798.295986	0.863874
798.617484	0.866252
798.938938	0.870869
799.260346	0.875297
799.581709	0.877838
799.903026	0.879224
800.224299	0.879887
800.545526	0.883623
800.866708	0.888463
801.187845	0.891623
801.508936	0.892127
801.829983	0.889518
802.150984	0.892308
802.471940	0.897206
802.792851	0.896842
803.113717	0.898083
803.434538	0.895088
803.755314	0.898216
804.076045	0.900684
804.396731	0.899109
804.717372	0.899883
805.037967	0.901606
805.358518	0.898794
805.679024	0.896352
805.999485	0.895948
806.319901	0.896569
806.640272	0.898149
806.960598	0.896016
807.280879	0.894049
807.601115	0.892319
807.921306	0.895096
808.241453	0.895327
808.561554	0.893253
808.881611	0.893921
809.201623	0.896315
809.521590	0.895694
809.841513	0.896565
810.161390	0.896266
810.481223	0.897109
810.801011	0.901093
811.120755	0.902291
811.440453	0.900991
811.760107	0.900408
812.079716	0.899715
812.399281	0.903461
812.718801	0.905909
813.038276	0.906782
813.357707	0.905974
813.677093	0.902975
813.996434	0.907348
814.315731	0.907911
814.634983	0.909062
814.954191	0.908051
815.273354	0.905224
815.592473	0.901372
815.911547	0.901163
816.230577	0.897853
816.549562	0.895811
816.868502	0.896697
817.187399	0.893581
817.506250	0.887704
817.825058	0.889998
818.143821	0.885930
818.462539	0.881434
818.781213	0.873460
819.099843	0.862047
819.418429	0.845791
819.736970	0.829493
820.055466	0.809579
820.373919	0.783614
820.692327	0.751155
821.010691	0.715109
821.329011	0.638392
821.647286	0.523009
821.965517	0.409604
822.283704	0.366685
822.601847	0.368024
822.919945	0.403518
823.237999	0.437235
823.556010	0.484458
823.873976	0.540269
824.191897	0.589894
824.509775	0.633780
824.827609	0.678539
825.145398	0.701218
825.463144	0.704432
825.780845	0.687159
826.098502	0.668232
826.416116	0.622376
826.733685	0.578019
827.051210	0.570019
827.368692	0.584493
827.686129	0.621972
828.003522	0.674782
828.320872	0.721991
828.638177	0.765871
828.955439	0.799065
829.272656	0.821087
829.589830	0.838358
829.906960	0.854622
830.224046	0.866634
830.541088	0.877110
830.858086	0.881284
831.175041	0.887757
831.491952	0.887295
831.808819	0.883401
832.125642	0.877039
832.442421	0.861415
832.759157	0.839567
833.075849	0.793602
833.392497	0.729906
833.709101	0.688939
834.025662	0.698470
834.342179	0.729953
834.658653	0.769152
834.975083	0.805047
835.291469	0.831839
835.607811	0.854038
835.924110	0.869645
836.240366	0.886841
836.556578	0.901693
836.872746	0.908354
837.188871	0.913638
837.504952	0.920767
837.820990	0.924416
838.136984	0.926772
838.452935	0.930925
838.768842	0.931037
839.084706	0.924844
839.400526	0.898944
839.716303	0.858122
840.032037	0.835609
840.347727	0.839962
840.663373	0.857572
840.978977	0.879664
841.294537	0.901427
841.610054	0.917608
841.925527	0.924786
842.240957	0.932701
842.556344	0.940284
842.871687	0.944989
843.186987	0.950159
843.502244	0.949841
843.817458	0.952864
844.132629	0.954944
844.447756	0.960424
844.762840	0.960614
845.077881	0.958670
845.392879	0.959367
845.707833	0.961670
846.022745	0.964154
846.337613	0.964803
846.652438	0.965372
846.967221	0.963748
847.281960	0.964711
847.596656	0.966557
847.911309	0.965573
848.225919	0.967563
848.540485	0.969004
848.855009	0.968497
849.169490	0.967459
849.483928	0.968665
849.798323	0.969493
850.112675	0.970584
850.426984	0.969055
850.741251	0.969691
851.055474	0.970841
851.369654	0.967861
851.683792	0.968861
851.997887	0.969997
852.311938	0.969580
852.625947	0.970035
852.939914	0.968428
853.253837	0.969284
853.567718	0.971579
853.881555	0.970525
854.195350	0.968333
854.509103	0.969735
854.822812	0.969925
855.136479	0.970428
855.450103	0.969940
855.763685	0.968203
856.077224	0.969327
856.390720	0.969969
856.704173	0.970253
857.017584	0.969232
857.330953	0.966835
857.644278	0.967629
857.957561	0.967814
858.270802	0.968126
858.584000	0.967274
858.897155	0.967242
859.210268	0.967216
859.523339	0.968526
859.836367	0.970752
860.149352	0.969786
860.462295	0.967890
860.775195	0.969342
861.088054	0.969404
861.400869	0.969651
861.713642	0.970198
862.026373	0.969765
862.339062	0.971234
862.651708	0.967979
862.964312	0.967795
863.276873	0.969298
863.589392	0.968874
863.901869	0.966024
864.214303	0.965803
864.526696	0.962955
864.839045	0.963198
865.151353	0.961848
865.463619	0.962003
865.775842	0.962805
866.088023	0.962405
866.400162	0.961921
866.712258	0.961660
867.024313	0.962433
867.336325	0.963380
867.648296	0.963082
867.960224	0.961884
868.272110	0.961365
868.583954	0.963471
868.895755	0.963490
869.207515	0.961743
869.519233	0.958763
869.830909	0.960645
870.142542	0.961422
870.454134	0.961929
870.765684	0.960686
871.077191	0.958032
871.388657	0.959278
871.700081	0.957602
872.011463	0.957496
872.322803	0.958680
872.634101	0.956460
872.945357	0.954309
873.256571	0.953548
873.567744	0.952559
873.878874	0.953866
874.189963	0.950721
874.501010	0.950464
874.812015	0.950387
875.122979	0.951643
875.433900	0.953124
875.744780	0.954251
876.055618	0.951039
876.366415	0.949707
876.677169	0.950008
876.987882	0.951308
877.298554	0.950617
877.609183	0.946946
877.919771	0.945496
878.230317	0.942737
878.540822	0.939971
878.851285	0.934372
879.161707	0.927597
879.472087	0.915114
879.782425	0.899068
880.092722	0.865145
880.402977	0.812139
880.713191	0.751011
881.023363	0.691945
881.333494	0.657860
881.643583	0.630861
881.953631	0.630642
882.263637	0.659286
882.573602	0.697871
882.883526	0.723990
883.193408	0.747459
883.503248	0.770113
883.813048	0.797049
884.122806	0.827552
884.432522	0.849888
884.742197	0.870655
885.051831	0.881269
885.361424	0.892094
885.670975	0.904051
885.980485	0.912923
886.289954	0.919260
886.599382	0.926020
886.908768	0.929582
887.218113	0.934567
887.527417	0.939277
887.836680	0.941641
888.145901	0.943589
888.455082	0.945977
888.764221	0.950638
889.073319	0.952651
889.382376	0.953685
889.691392	0.952753
890.000366	0.952347
890.309300	0.953890
890.618193	0.953013
890.927044	0.950985
891.235855	0.951565
891.544625	0.951617
891.853353	0.951583
892.162041	0.949450
892.470687	0.942719
892.779293	0.938503
893.087858	0.933809
893.396381	0.925962
893.704864	0.913024
894.013306	0.888758
894.321707	0.861967
894.630068	0.847617
894.938387	0.842717
895.246665	0.844640
895.554903	0.856521
895.863100	0.870749
896.171256	0.886386
896.479371	0.906022
896.787446	0.919603
897.095480	0.925346
897.403473	0.928067
897.711425	0.931672
898.019336	0.939722
898.327207	0.943796
898.635038	0.944530
898.942827	0.944495
899.250576	0.947976
899.558284	0.952415
899.865952	0.953934
900.173579	0.955505
900.481165	0.955033
900.788711	0.959329
901.096216	0.961522
901.403681	0.961253
901.711105	0.964176
902.018489	0.964285
902.325832	0.962692
902.633135	0.961456
902.940397	0.956012
903.247619	0.942188
903.554800	0.918254
903.861941	0.878454
904.169041	0.842157
904.476101	0.825653
904.783121	0.826311
905.090100	0.842672
905.397039	0.863699
905.703938	0.886082
906.010796	0.904714
906.317614	0.923889
906.624391	0.934681
906.931129	0.942839
907.237826	0.951761
907.544483	0.959806
907.851099	0.961461
908.157675	0.968537
908.464211	0.969590
908.770707	0.972272
909.077163	0.973086
909.383578	0.974069
909.689954	0.974426
909.996289	0.975481
910.302584	0.978280
910.608839	0.979959
910.915054	0.978414
911.221229	0.978797
911.527363	0.976929
911.833458	0.977155
912.139513	0.976623
912.445527	0.974864
912.751502	0.974524
913.057436	0.972299
913.363331	0.969611
913.669186	0.966154
913.975000	0.960516
914.280775	0.955350
914.586510	0.948119
914.892205	0.935371
915.197859	0.913925
915.503475	0.886160
915.809050	0.866782
916.114585	0.861174
916.420081	0.858492
916.725536	0.855930
917.030952	0.864686
917.336328	0.877032
917.641665	0.891683
917.946961	0.906308
918.252218	0.918139
918.557435	0.927390
918.862612	0.935349
919.167750	0.942416
919.472848	0.947239
919.777906	0.952600
920.082925	0.956891
920.387904	0.962171
920.692843	0.962579
920.997743	0.963734
921.302603	0.968130
921.607423	0.968690
921.912204	0.971839
922.216946	0.971241
922.521647	0.974009
922.826310	0.974585
923.130932	0.976796
923.435516	0.978002
923.740059	0.978932
924.044564	0.979156
924.349028	0.980630
924.653454	0.983072
924.957840	0.984324
925.262186	0.984446
925.566493	0.983778
925.870761	0.984795
926.174989	0.985392
926.479178	0.987679
926.783328	0.989003
927.087438	0.987984
927.391509	0.987714
927.695541	0.990327
927.999533	0.990248
928.303486	0.989353
928.607400	0.990436
928.911275	0.990004
929.215110	0.989900
929.518906	0.990962
929.822663	0.989810
930.126381	0.991378
930.430060	0.989841
930.733699	0.990789
931.037299	0.989531
931.340861	0.989727
931.644383	0.989948
931.947866	0.988701
932.251309	0.990983
932.554714	0.990131
932.858080	0.990573
933.161407	0.990113
933.464694	0.990555
933.767943	0.989172
934.071153	0.991299
934.374323	0.991742
934.677455	0.991185
934.980548	0.991341
935.283602	0.990409
935.586617	0.992037
935.889593	0.990871
936.192530	0.990983
936.495428	0.990335
936.798287	0.990506
937.101108	0.990864
937.403890	0.988529
937.706632	0.988668
938.009336	0.986866
938.312002	0.985789
938.614628	0.983984
938.917216	0.984000
939.219765	0.982070
939.522275	0.982405
939.824747	0.982399
940.127179	0.983864
940.429573	0.983777
940.731929	0.983950
941.034246	0.984779
941.336524	0.985366
941.638763	0.986132
941.940964	0.986611
942.243126	0.986362
942.545250	0.986662
942.847335	0.988232
943.149381	0.987904
943.451389	0.989169
943.753359	0.987867
944.055290	0.990033
944.357182	0.990054
944.659036	0.988036
944.960851	0.989250
945.262628	0.989716
945.564367	0.990716
945.866067	0.989598
946.167729	0.990102
946.469352	0.989064
946.770937	0.989211
947.072484	0.990788
947.373992	0.989783
947.675462	0.989557
947.976893	0.990289
948.278286	0.990962
948.579641	0.991617
948.880958	0.990564
949.182236	0.990161
949.483476	0.991869
949.784678	0.990084
950.085841	0.991685
950.386967	0.990657
950.688054	0.991490
950.989103	0.990979
951.290114	0.988858
951.591087	0.989292
951.892021	0.989874
952.192917	0.989071
952.493776	0.988403
952.794596	0.987957
953.095378	0.986898
953.396122	0.987593
953.696828	0.986364
953.997496	0.990307
954.298126	0.990374
954.598718	0.990913
954.899272	0.992353
955.199788	0.991037
955.500266	0.993087
955.800706	0.992512
956.101108	0.992899
956.401472	0.994410
956.701798	0.993817
957.002087	0.992246
957.302337	0.993878
957.602550	0.995302
957.902724	0.994939
958.202861	0.993850
958.502960	0.995453
958.803022	0.993538
959.103045	0.996022
959.403031	0.996189
959.702979	0.994805
960.002889	0.995911
960.302762	0.994668
960.602596	0.996533
960.902393	0.994581
961.202153	0.995493
961.501875	0.996607
961.801559	0.995616
962.101205	0.994484
962.400814	0.996553
962.700385	0.996364
962.999918	0.996124
963.299414	0.997474
963.598873	0.995809
963.898293	0.995869
964.197677	0.997240
964.497022	0.996165
964.796331	0.997274
965.095601	0.996082
965.394835	0.996648
965.694030	0.996904
965.993189	0.996935
966.292309	0.995348
966.591393	0.997475
966.890439	0.997530
967.189447	0.996417
967.488419	0.996812
967.787353	0.996650
968.086249	0.995639
968.385108	0.997833
968.683930	0.996745
968.982714	0.996587
969.281462	0.996334
969.580172	0.996865
969.878844	0.997524
970.177480	0.997272
970.476078	0.997674
970.774639	0.996449
971.073162	0.997971
971.371649	0.996512
971.670098	0.997162
971.968510	0.996394
972.266885	0.995343
972.565223	0.997166
972.863524	0.996330
973.161788	0.996813
973.460014	0.998639
973.758204	0.995510
974.056356	0.996018
974.354471	0.994195
974.652550	0.996193
974.950591	0.995671
975.248595	0.996358
975.546563	0.996153
975.844493	0.998460
976.142386	0.996414
976.440243	0.997882
976.738062	0.997306
977.035845	0.997997
977.333590	0.997210
977.631299	0.997599
977.928971	0.996410
978.226606	0.996533
978.524204	0.995631
978.821765	0.999094
979.119290	0.995992
979.416777	0.997350
979.714228	0.997833
980.011642	0.996517
980.309020	0.997681
980.606360	0.996890
980.903664	0.999127
981.200931	0.995683
981.498162	0.995432
981.795356	0.995005
982.092513	0.993202
982.389633	0.995200
982.686717	0.992030
982.983764	0.991663
983.280775	0.989264
983.577749	0.989805
983.874686	0.991894
984.171587	0.991175
984.468451	0.993182
984.765279	0.994504
985.062070	0.994165
985.358824	0.994835
985.655543	0.994791
985.952224	0.996383
986.248869	0.997017
986.545478	0.997215
986.842050	0.997562
987.138586	0.996289
987.435086	0.997497
987.731549	0.998173
988.027975	0.997495
988.324366	0.998163
988.620719	0.997862
988.917037	0.997545
989.213318	0.997973
989.509563	1.000169
989.805772	0.999138
990.101944	0.999210
990.398080	0.996346
990.694180	0.997299
990.990244	0.996426
991.286271	0.998301
991.582262	0.998118
991.878217	0.997160
992.174136	0.998743
992.470019	0.998738
992.765865	0.998091
993.061676	0.998431
993.357450	0.998025
993.653188	0.997982
993.948890	0.997937
994.244556	0.997247
994.540186	0.997600
994.835780	0.996602
995.131337	0.997166
995.426859	0.996565
995.722345	0.997271
996.017795	0.996953
996.313208	0.995589
996.608586	0.995385
996.903928	0.997683
997.199234	0.996332
997.494504	0.995455
997.789738	0.996427
998.084936	0.996433
998.380099	0.997923
998.675225	0.998034
998.970316	0.998474
999.265371	0.997686
999.560390	0.997591
999.855373	0.998782
1000.150320	0.997997
1000.445232	0.998837
1000.740108	0.998236
1001.034948	0.998970
1001.329752	0.999780
1001.624521	0.997945
1001.919254	0.998689
1002.213951	0.998524
1002.508613	0.997308
1002.803239	0.998573
1003.097829	0.998492
1003.392384	0.998972
1003.686903	0.998778
1003.981386	0.998671
1004.275834	0.999615
1004.570246	0.998964
1004.864623	0.999674
1005.158964	0.998658
1005.453270	0.998031
1005.747540	0.998274
1006.041775	0.998225
1006.335974	0.999360
1006.630138	0.999111
1006.924266	0.999255
1007.218359	1.000367
1007.512416	0.998206
1007.806438	0.999831
1008.100425	0.999374
1008.394376	0.999240
1008.688292	0.998567
1008.982172	1.000729
1009.276017	0.999279
1009.569827	0.997691
1009.863602	0.999283
1010.157341	0.999423
1010.451045	1.000481
1010.744714	0.999275
1011.038347	0.998581
1011.331945	0.998161
1011.625508	0.997340
1011.919036	0.998744
1012.212528	0.996975
1012.505986	0.997431
1012.799408	0.998212
1013.092795	1.000187
1013.386147	0.999498
1013.679464	0.999007
1013.972745	0.998922
1014.265992	0.997286
1014.559204	0.999312
1014.852380	0.999536
1015.145521	0.999467
1015.438628	0.998859
1015.731699	0.998901
1016.024736	0.999022
1016.317737	0.998160
1016.610703	0.998851
1016.903635	1.000263
1017.196531	0.998234
1017.489393	0.999438
1017.782219	0.998767
1018.075011	0.998649
1018.367768	0.998218
1018.660490	1.000379
1018.953177	1.000379
1019.245829	1.000379
