Dividing Wavelength (nm)	Counts (n)	Blue Motor Position (mm): 0.000000	Red Motor Position (mm): 37.600000	
326.493990	1.000197
326.888308	1.000197
327.282561	1.000197
327.676750	1.000025
328.070874	0.999045
328.464933	0.999940
328.858929	0.999332
329.252859	0.999907
329.646726	0.999266
330.040528	1.001231
330.434265	0.998841
330.827938	1.000819
331.221547	1.000650
331.615091	1.000538
332.008571	0.999710
332.401986	1.000234
332.795338	1.002136
333.188625	0.997821
333.581847	1.001154
333.975006	0.999895
334.368100	0.999680
334.761129	1.000388
335.154095	1.001395
335.546996	0.999630
335.939833	0.996119
336.332606	0.996586
336.725315	0.997975
337.117960	0.997850
337.510540	0.996013
337.903056	0.998975
338.295508	0.997238
338.687896	0.998377
339.080220	0.997837
339.472480	0.997638
339.864676	0.997050
340.256807	0.997096
340.648875	0.997814
341.040879	0.997546
341.432818	0.997313
341.824694	0.997961
342.216506	0.997827
342.608253	0.997684
342.999937	0.997006
343.391557	0.998191
343.783113	0.997209
344.174605	0.997089
344.566033	0.998219
344.957397	0.996498
345.348697	0.997010
345.739934	0.997307
346.131106	0.997552
346.522215	0.996459
346.913260	0.997638
347.304241	0.996910
347.695159	0.996467
348.086012	0.996315
348.476802	0.996886
348.867528	0.997499
349.258191	0.996451
349.648789	0.998311
350.039324	0.996635
350.429796	0.999613
350.820203	0.998168
351.210548	0.998167
351.600828	0.997158
351.991045	0.996596
352.381198	0.996870
352.771288	0.997181
353.161314	0.997583
353.551276	0.998784
353.941175	0.997027
354.331010	0.997270
354.720782	0.996846
355.110490	0.997112
355.500135	0.997262
355.889717	0.997486
356.279235	0.997420
356.668689	0.996769
357.058080	0.998266
357.447408	0.998235
357.836672	0.998860
358.225873	0.998779
358.615010	0.998068
359.004084	0.998092
359.393095	0.997777
359.782043	0.997397
360.170927	0.998065
360.559748	0.998372
360.948505	0.997206
361.337199	0.996077
361.725830	0.996870
362.114398	0.996973
362.502903	0.998329
362.891344	0.999100
363.279722	0.997478
363.668037	0.998326
364.056289	0.996736
364.444478	0.998212
364.832603	0.997876
365.220665	0.996375
365.608665	0.998428
365.996601	0.996142
366.384474	0.997696
366.772284	0.997159
367.160031	0.996442
367.547715	0.996868
367.935336	0.996909
368.322893	0.998055
368.710388	0.996799
369.097820	0.998121
369.485189	0.996784
369.872495	0.998762
370.259738	0.996848
370.646918	0.998425
371.034035	0.997433
371.421090	0.996557
371.808081	0.996275
372.195010	0.998614
372.581875	0.997095
372.968678	0.998446
373.355418	0.998905
373.742096	0.997720
374.128710	0.998715
374.515262	0.997250
374.901751	0.998562
375.288177	0.998483
375.674540	0.998115
376.060841	0.997054
376.447079	0.998940
376.833254	0.999255
377.219367	0.997494
377.605417	0.998281
377.991404	0.998373
378.377329	0.996812
378.763191	0.997578
379.148991	0.998183
379.534727	0.998794
379.920402	0.998808
380.306013	0.998538
380.691563	0.998217
381.077049	0.997603
381.462474	0.997533
381.847835	0.997329
382.233134	0.997230
382.618371	0.998245
383.003545	0.997770
383.388657	0.998420
383.773706	0.998741
384.158693	0.999387
384.543618	0.999029
384.928480	0.999506
385.313280	0.998113
385.698017	0.998237
386.082692	0.998066
386.467305	0.998220
386.851856	0.998423
387.236344	0.998087
387.620770	0.996689
388.005133	0.998952
388.389435	0.998828
388.773674	0.998777
389.157851	0.999274
389.541965	0.999311
389.926018	0.998388
390.310008	0.999373
390.693936	0.997631
391.077802	0.999127
391.461606	0.998246
391.845348	0.998870
392.229027	1.000177
392.612645	0.998706
392.996200	0.999515
393.379694	0.998593
393.763125	1.000347
394.146494	0.999291
394.529801	0.998861
394.913047	1.000208
395.296230	0.999462
395.679351	0.998977
396.062410	0.998994
396.445408	0.998954
396.828343	0.998772
397.211217	0.998903
397.594028	0.999167
397.976778	0.999026
398.359466	0.999396
398.742092	0.998374
399.124656	0.999111
399.507158	0.999618
399.889598	0.999167
400.271977	0.999614
400.654294	0.999066
401.036549	0.999714
401.418742	0.999132
401.800874	0.998680
402.182944	0.999409
402.564952	0.998791
402.946898	0.999792
403.328783	0.998648
403.710606	0.998823
404.092367	0.998925
404.474067	0.999335
404.855705	0.998669
405.237282	0.998776
405.618797	0.999125
406.000250	0.998523
406.381642	1.000224
406.762972	0.999786
407.144240	0.999246
407.525447	0.999321
407.906593	0.999372
408.287677	0.999007
408.668700	0.999764
409.049661	0.998508
409.430560	0.999942
409.811399	0.998580
410.192176	0.999327
410.572891	0.999006
410.953545	0.998253
411.334138	0.997460
411.714669	0.999432
412.095139	0.998803
412.475547	1.000224
412.855894	0.999771
413.236180	0.999958
413.616405	0.999126
413.996568	0.999341
414.376670	0.998530
414.756711	0.998546
415.136691	0.999422
415.516609	0.999428
415.896466	0.999418
416.276262	0.998459
416.655997	0.999908
417.035670	0.999708
417.415283	0.999443
417.794834	0.999718
418.174324	0.998858
418.553753	0.999793
418.933121	0.999308
419.312428	0.998832
419.691674	0.998838
420.070859	0.999599
420.449983	0.999142
420.829045	0.999250
421.208047	1.000001
421.586988	1.000276
421.965867	0.999532
422.344686	1.000728
422.723444	0.999479
423.102141	0.999908
423.480777	0.999791
423.859352	0.999761
424.237866	0.999232
424.616319	0.998751
424.994712	0.999705
425.373044	1.000353
425.751314	0.999995
426.129524	0.999396
426.507673	1.000000
426.885762	0.999366
427.263789	0.998798
427.641756	0.999622
428.019662	0.999583
428.397508	0.998810
428.775292	1.000062
429.153016	0.999653
429.530679	1.000022
429.908282	0.999771
430.285824	0.999071
430.663305	0.999714
431.040726	0.999304
431.418086	1.001180
431.795385	0.999929
432.172624	0.999247
432.549802	0.999930
432.926920	0.999827
433.303977	0.999000
433.680974	1.000673
434.057910	0.999062
434.434786	1.000145
434.811601	0.999782
435.188355	0.998906
435.565050	0.999782
435.941683	0.999737
436.318257	1.001120
436.694770	0.998931
437.071222	0.999888
437.447614	1.000192
437.823946	1.000366
438.200218	0.999675
438.576429	1.000325
438.952580	0.999896
439.328670	0.999523
439.704700	0.999642
440.080670	1.000316
440.456580	0.999706
440.832429	0.999317
441.208218	1.000083
441.583947	0.999547
441.959616	0.999066
442.335224	0.999764
442.710773	1.000783
443.086261	0.999207
443.461689	0.999303
443.837057	1.000135
444.212365	1.000816
444.587612	0.999565
444.962800	0.999391
445.337927	1.000334
445.712995	0.999969
446.088002	1.000561
446.462949	1.000223
446.837837	1.000363
447.212664	1.000455
447.587431	1.000102
447.962139	1.000117
448.336786	1.000581
448.711374	0.999605
449.085901	0.999424
449.460369	0.999828
449.834776	0.999903
450.209124	1.000203
450.583412	0.999814
450.957640	1.000207
451.331808	0.999772
451.705917	1.000374
452.079965	0.998703
452.453954	1.000173
452.827883	0.999662
453.201752	1.000017
453.575562	1.000818
453.949311	1.000127
454.323001	0.999829
454.696632	0.999401
455.070202	0.999692
455.443713	0.999512
455.817164	1.000499
456.190556	1.000112
456.563888	1.000138
456.937160	1.000215
457.310373	0.999680
457.683526	0.999544
458.056619	0.999002
458.429653	0.999778
458.802628	0.998873
459.175542	0.999955
459.548398	0.999968
459.921194	0.999542
460.293930	0.999772
460.666607	0.999081
461.039224	0.998776
461.411782	1.000321
461.784280	0.998809
462.156719	1.001140
462.529099	1.000065
462.901419	0.999818
463.273680	0.999771
463.645882	1.000375
464.018024	1.000293
464.390106	0.999986
464.762130	1.000952
465.134094	0.999873
465.505999	1.000518
465.877845	1.000089
466.249631	1.000940
466.621358	0.999765
466.993026	1.000007
467.364634	1.000273
467.736184	1.000949
468.107674	1.000650
468.479105	0.999634
468.850477	1.000219
469.221790	1.000080
469.593043	1.000019
469.964238	1.000618
470.335373	0.999953
470.706449	0.999493
471.077467	1.000656
471.448425	1.000572
471.819324	1.000998
472.190164	0.999689
472.560945	0.999950
472.931667	0.999973
473.302330	0.999428
473.672934	1.000395
474.043479	1.000358
474.413965	0.999748
474.784393	1.000523
475.154761	1.000137
475.525070	0.999168
475.895321	1.000434
476.265513	1.000271
476.635645	1.000237
477.005719	1.000280
477.375734	1.000140
477.745691	1.000341
478.115588	0.999608
478.485427	1.000484
478.855207	0.999938
479.224928	1.000405
479.594591	1.000373
479.964194	1.000393
480.333739	1.000930
480.703226	1.000222
481.072653	1.000466
481.442022	1.000983
481.811333	0.999428
482.180584	1.000707
482.549777	1.000054
482.918912	1.000601
483.287988	0.999875
483.657005	1.000303
484.025964	1.000625
484.394864	1.000744
484.763706	1.000515
485.132489	1.000085
485.501213	1.000750
485.869879	1.000384
486.238487	1.000977
486.607036	1.000873
486.975527	0.999860
487.343959	0.999755
487.712333	0.999937
488.080648	0.999725
488.448905	1.000511
488.817104	1.000399
489.185244	1.000020
489.553326	1.000318
489.921350	0.999952
490.289315	1.000320
490.657222	1.000563
491.025070	1.000805
491.392861	1.001410
491.760593	1.000482
492.128267	1.000006
492.495883	1.000082
492.863440	1.000277
493.230939	1.000722
493.598380	1.000084
493.965763	1.000032
494.333088	1.000577
494.700354	0.999748
495.067563	1.000048
495.434713	1.000118
495.801805	1.001205
496.168839	1.000413
496.535815	0.999698
496.902733	1.000307
497.269593	0.999650
497.636395	0.999985
498.003139	1.000297
498.369825	1.000593
498.736453	1.000041
499.103023	0.999242
499.469535	0.999292
499.835989	1.000361
500.202385	1.000349
500.568723	0.999984
500.935003	1.000297
501.301226	0.999781
501.667390	0.999487
502.033497	1.000197
502.399546	1.000426
502.765537	0.999207
503.131470	0.999740
503.497345	0.999896
503.863163	1.000807
504.228923	0.999921
504.594625	0.999724
504.960269	1.000299
505.325856	0.999862
505.691385	0.999797
506.056856	0.999677
506.422270	0.999828
506.787625	0.999540
507.152924	1.000103
507.518164	0.999671
507.883347	1.000344
508.248472	0.999750
508.613540	1.000041
508.978550	0.999797
509.343503	0.999297
509.708398	0.999832
510.073236	0.999250
510.438016	0.999942
510.802738	0.999928
511.167403	0.999641
511.532010	0.999209
511.896561	0.999312
512.261053	1.000299
512.625488	0.998963
512.989866	0.999239
513.354186	0.999507
513.718449	0.999353
514.082655	0.999584
514.446803	0.999190
514.810894	0.999639
515.174927	0.998954
515.538904	0.999491
515.902822	0.999611
516.266684	0.999304
516.630488	1.000184
516.994235	0.999240
517.357925	0.998820
517.721558	0.999571
518.085133	0.998205
518.448651	0.999771
518.812112	0.999028
519.175516	0.997984
519.538863	0.999062
519.902152	0.999113
520.265385	0.998488
520.628560	0.999046
520.991678	0.998452
521.354739	0.998738
521.717743	0.998403
522.080690	0.998661
522.443580	0.998229
522.806413	0.998538
523.169189	0.998112
523.531908	0.997875
523.894569	0.998234
524.257174	0.998560
524.619722	0.998231
524.982213	0.997938
525.344647	0.998513
525.707025	0.997704
526.069345	0.997431
526.431608	0.997675
526.793815	0.997597
527.155964	0.996919
527.518057	0.998008
527.880093	0.997448
528.242072	0.997091
528.603995	0.996523
528.965860	0.997579
529.327669	0.996940
529.689421	0.996367
530.051117	0.996801
530.412755	0.996572
530.774337	0.996445
531.135862	0.996407
531.497331	0.996044
531.858743	0.995632
532.220098	0.995944
532.581396	0.995159
532.942638	0.995568
533.303824	0.995117
533.664953	0.995363
534.026025	0.994662
534.387040	0.994288
534.747999	0.994062
535.108902	0.993543
535.469748	0.993231
535.830537	0.993021
536.191270	0.993514
536.551947	0.992471
536.912567	0.991984
537.273131	0.992390
537.633638	0.990942
537.994089	0.991104
538.354483	0.991071
538.714821	0.990611
539.075103	0.989479
539.435328	0.989251
539.795497	0.988738
540.155609	0.987731
540.515665	0.987356
540.875665	0.987470
541.235609	0.987089
541.595496	0.986034
541.955328	0.985133
542.315102	0.985637
542.674821	0.984731
543.034483	0.983052
543.394090	0.982530
543.753640	0.982516
544.113134	0.981529
544.472571	0.981344
544.831953	0.980141
545.191278	0.979950
545.550548	0.979546
545.909761	0.977310
546.268918	0.977286
546.628019	0.976352
546.987064	0.975544
547.346053	0.974832
547.704986	0.973995
548.063863	0.972525
548.422684	0.971454
548.781449	0.971182
549.140158	0.969283
549.498811	0.969095
549.857408	0.967737
550.215949	0.965903
550.574434	0.965241
550.932864	0.963752
551.291237	0.962378
551.649555	0.961771
552.007817	0.960104
552.366022	0.958857
552.724173	0.957755
553.082267	0.957057
553.440305	0.953666
553.798288	0.953101
554.156215	0.951180
554.514086	0.949845
554.871902	0.948547
555.229661	0.946772
555.587365	0.945457
555.945014	0.944974
556.302606	0.941547
556.660143	0.940626
557.017625	0.937345
557.375050	0.936299
557.732421	0.934089
558.089735	0.932786
558.446994	0.931698
558.804197	0.928635
559.161345	0.926792
559.518437	0.926603
559.875474	0.922010
560.232455	0.920743
560.589381	0.919565
560.946251	0.915037
561.303065	0.914227
561.659825	0.911624
562.016528	0.909000
562.373177	0.907781
562.729770	0.904314
563.086307	0.902723
563.442789	0.900548
563.799216	0.897234
564.155587	0.895142
564.511904	0.892423
564.868164	0.890030
565.224370	0.888220
565.580520	0.884658
565.936615	0.882741
566.292654	0.879625
566.648638	0.877226
567.004567	0.873991
567.360441	0.872262
567.716260	0.868683
568.072023	0.866209
568.427732	0.862448
568.783385	0.861346
569.138982	0.857197
569.494525	0.854213
569.850013	0.852606
570.205445	0.848277
570.560823	0.846547
570.916145	0.843355
571.271412	0.839667
571.626625	0.836837
571.981782	0.833660
572.336884	0.831073
572.691931	0.828217
573.046923	0.823811
573.401860	0.821375
573.756743	0.818174
574.111570	0.815028
574.466342	0.812626
574.821059	0.808055
575.175722	0.805539
575.530330	0.801902
575.884882	0.799021
576.239380	0.795705
576.593823	0.792536
576.948211	0.788645
577.302544	0.787519
577.656823	0.782716
578.011047	0.779799
578.365216	0.776139
578.719330	0.773494
579.073389	0.769445
579.427394	0.767803
579.781344	0.764510
580.135239	0.760726
580.489080	0.757508
580.842866	0.754507
581.196597	0.750673
581.550273	0.746486
581.903895	0.742840
582.257463	0.739271
582.610975	0.735975
582.964434	0.733324
583.317837	0.730549
583.671186	0.727685
584.024481	0.723632
584.377721	0.720912
584.730906	0.717623
585.084037	0.713281
585.437113	0.711844
585.790135	0.706630
586.143103	0.704560
586.496016	0.702712
586.848874	0.697354
587.201679	0.694605
587.554428	0.691514
587.907124	0.687739
588.259765	0.684539
588.612352	0.681010
588.964884	0.680655
589.317362	0.676450
589.669786	0.672160
590.022155	0.669367
590.374470	0.664202
590.726731	0.663147
591.078937	0.660754
591.431090	0.654687
591.783188	0.654706
592.135232	0.650424
592.487222	0.648399
592.839157	0.642933
593.191038	0.641078
593.542866	0.638829
593.894639	0.637228
594.246358	0.632519
594.598022	0.628773
594.949633	0.627445
595.301190	0.623966
595.652692	0.620531
596.004141	0.614378
596.355535	0.616268
596.706876	0.612601
597.058162	0.610694
597.409395	0.606102
597.760573	0.601517
598.111698	0.600887
598.462768	0.596685
598.813785	0.595092
599.164748	0.592064
599.515657	0.589735
599.866511	0.587820
600.217312	0.582920
600.568060	0.583225
600.918753	0.577431
601.269392	0.574804
601.619978	0.573399
601.970510	0.569140
602.320988	0.567105
602.671412	0.561405
603.021783	0.560743
603.372100	0.558437
603.722363	0.554093
604.072572	0.553147
604.422728	0.549041
604.772830	0.547903
605.122878	0.545065
605.472872	0.542077
605.822813	0.537719
606.172701	0.537214
606.522534	0.532134
606.872314	0.530144
607.222041	0.526567
607.571714	0.522969
607.921333	0.521350
608.270899	0.518299
608.620411	0.513216
608.969870	0.513438
609.319276	0.510949
609.668627	0.507896
610.017926	0.504257
610.367171	0.500898
610.716362	0.499400
611.065500	0.497068
611.414585	0.492890
611.763616	0.491792
612.112594	0.488990
612.461518	0.486277
612.810389	0.482467
613.159207	0.481726
613.507971	0.481278
613.856682	0.474999
614.205340	0.474605
614.553945	0.469917
614.902496	0.470468
615.250994	0.466979
615.599439	0.465563
615.947830	0.462492
616.296169	0.461909
616.644454	0.458190
616.992686	0.456918
617.340864	0.452579
617.688990	0.453524
618.037063	0.449614
618.385082	0.448987
618.733048	0.444518
619.080961	0.444800
619.428821	0.442339
619.776628	0.439659
620.124382	0.439948
620.472083	0.437445
620.819731	0.435190
621.167326	0.436101
621.514868	0.434272
621.862357	0.435313
622.209793	0.432955
622.557176	0.432743
622.904506	0.431785
623.251783	0.431866
623.599007	0.431306
623.946179	0.429741
624.293297	0.429348
624.640363	0.431113
624.987376	0.428994
625.334336	0.430272
625.681243	0.430089
626.028097	0.429729
626.374899	0.429112
626.721647	0.427295
627.068343	0.429270
627.414987	0.428380
627.761577	0.428866
628.108115	0.426359
628.454600	0.429719
628.801032	0.425224
629.147412	0.426230
629.493739	0.425588
629.840014	0.427285
630.186236	0.423824
630.532405	0.427283
630.878521	0.423997
631.224585	0.424670
631.570597	0.427673
631.916556	0.424636
632.262462	0.424276
632.608316	0.424647
632.954117	0.424425
633.299866	0.424190
633.645562	0.423456
633.991206	0.426024
634.336797	0.427615
634.682336	0.428261
635.027823	0.428952
635.373257	0.428187
635.718639	0.430156
636.063968	0.428341
636.409245	0.432486
636.754470	0.431323
637.099642	0.433408
637.444762	0.435083
637.789829	0.432945
638.134845	0.435898
638.479808	0.436116
638.824719	0.434457
639.169577	0.437650
639.514383	0.435948
639.859137	0.438808
640.203839	0.438176
640.548489	0.438210
640.893086	0.438669
641.237632	0.439448
641.582125	0.437109
641.926566	0.438226
642.270955	0.438463
642.615292	0.437289
642.959576	0.435897
643.303809	0.436346
643.647990	0.435024
643.992118	0.435039
644.336195	0.437819
644.680219	0.435601
645.024192	0.436009
645.368112	0.429117
645.711981	0.427716
646.055797	0.422998
646.399562	0.424854
646.743274	0.417278
647.086935	0.414468
647.430544	0.414037
647.774101	0.412304
648.117606	0.411821
648.461059	0.411622
648.804460	0.413420
649.147810	0.417912
649.491108	0.419113
649.834354	0.419667
650.177548	0.424111
650.520690	0.428829
650.863781	0.430163
651.206820	0.428483
651.549807	0.433322
651.892742	0.436366
652.235626	0.435842
652.578458	0.436129
652.921238	0.442025
653.263967	0.439687
653.606644	0.443132
653.949269	0.442906
654.291843	0.445950
654.634365	0.442170
654.976836	0.445428
655.319255	0.445275
655.661622	0.446893
656.003938	0.445945
656.346203	0.449217
656.688416	0.445861
657.030577	0.449240
657.372687	0.450889
657.714746	0.451605
658.056753	0.447948
658.398708	0.451912
658.740612	0.452390
659.082465	0.448499
659.424266	0.449318
659.766016	0.448437
660.107715	0.451005
660.449362	0.449528
660.790958	0.449920
661.132503	0.450086
661.473996	0.447900
661.815438	0.448359
662.156829	0.448701
662.498168	0.449202
662.839456	0.450126
663.180693	0.447888
663.521879	0.447729
663.863013	0.448417
664.204097	0.446509
664.545129	0.443389
664.886110	0.443495
665.227040	0.441071
665.567918	0.443669
665.908746	0.441168
666.249522	0.440888
666.590248	0.441307
666.930922	0.439384
667.271545	0.438355
667.612118	0.438294
667.952639	0.440194
668.293109	0.438489
668.633528	0.441721
668.973896	0.441232
669.314213	0.441350
669.654480	0.442894
669.994695	0.443041
670.334859	0.443652
670.674973	0.443268
671.015035	0.443917
671.355047	0.443840
671.695008	0.444631
672.034918	0.446322
672.374777	0.445777
672.714585	0.446949
673.054342	0.446676
673.394049	0.447021
673.733705	0.444433
674.073310	0.445043
674.412864	0.448543
674.752368	0.448466
675.091820	0.448720
675.431223	0.453605
675.770574	0.452956
676.109875	0.456161
676.449125	0.455434
676.788324	0.458094
677.127473	0.463349
677.466571	0.463224
677.805619	0.464490
678.144616	0.465229
678.483562	0.467194
678.822458	0.469469
679.161303	0.470496
679.500098	0.470866
679.838842	0.472683
680.177535	0.472274
680.516179	0.470626
680.854771	0.469759
681.193314	0.462771
681.531805	0.454358
681.870247	0.443014
682.208638	0.435142
682.546978	0.434323
682.885268	0.436475
683.223508	0.442659
683.561697	0.446093
683.899836	0.448928
684.237925	0.451877
684.575963	0.454658
684.913951	0.457523
685.251889	0.453128
685.589776	0.455138
685.927614	0.457792
686.265401	0.451976
686.603137	0.453739
686.940824	0.447183
687.278460	0.445506
687.616046	0.444830
687.953582	0.439356
688.291068	0.441106
688.628504	0.437239
688.965889	0.439112
689.303224	0.443344
689.640510	0.446910
689.977745	0.452939
690.314930	0.460840
690.652065	0.464567
690.989150	0.472431
691.326185	0.478830
691.663170	0.483235
692.000105	0.490127
692.336990	0.496972
692.673825	0.499684
693.010610	0.506368
693.347345	0.511691
693.684030	0.512506
694.020665	0.517913
694.357251	0.526839
694.693786	0.526663
695.030272	0.530707
695.366707	0.533954
695.703093	0.537755
696.039429	0.535092
696.375716	0.537220
696.711952	0.539995
697.048139	0.541422
697.384276	0.543766
697.720363	0.541918
698.056400	0.540973
698.392388	0.546505
698.728326	0.549154
699.064214	0.551395
699.400053	0.552945
699.735842	0.556091
700.071581	0.559341
700.407270	0.561562
700.742910	0.564553
701.078501	0.571081
701.414042	0.571436
701.749533	0.573876
702.084974	0.583473
702.420366	0.575510
702.755709	0.582634
703.091002	0.590657
703.426246	0.583976
703.761440	0.589894
704.096584	0.594790
704.431679	0.591463
704.766725	0.593380
705.101721	0.595011
705.436668	0.590686
705.771565	0.598214
706.106413	0.595861
706.441212	0.589527
706.775961	0.588639
707.110661	0.592186
707.445311	0.588007
707.779913	0.585549
708.114465	0.583930
708.448967	0.581479
708.783421	0.572181
709.117825	0.567160
709.452180	0.567573
709.786485	0.561369
710.120742	0.551361
710.454949	0.553476
710.789107	0.545386
711.123216	0.536834
711.457275	0.539357
711.791286	0.529553
712.125247	0.528143
712.459159	0.539362
712.793023	0.531928
713.126837	0.535582
713.460602	0.536514
713.794318	0.545883
714.127985	0.544162
714.461602	0.554084
714.795171	0.557208
715.128691	0.565550
715.462162	0.572784
715.795584	0.577926
716.128957	0.580474
716.462281	0.587211
716.795556	0.591149
717.128782	0.596392
717.461960	0.606028
717.795088	0.603649
718.128167	0.610285
718.461198	0.618705
718.794180	0.619343
719.127113	0.622395
719.459997	0.625966
719.792833	0.631614
720.125619	0.632548
720.458357	0.639217
720.791046	0.639103
721.123686	0.641996
721.456278	0.649040
721.788821	0.646033
722.121315	0.649908
722.453761	0.654490
722.786158	0.651941
723.118506	0.648480
723.450805	0.656825
723.783056	0.652498
724.115259	0.650032
724.447412	0.649370
724.779518	0.651395
725.111574	0.650233
725.443582	0.645335
725.775542	0.647844
726.107453	0.639873
726.439315	0.639713
726.771129	0.637983
727.102895	0.631814
727.434612	0.624441
727.766281	0.622575
728.097901	0.621535
728.429473	0.621043
728.760996	0.619833
729.092471	0.620333
729.423897	0.624310
729.755276	0.622891
730.086606	0.622778
730.417887	0.617283
730.749120	0.608219
731.080305	0.599100
731.411442	0.595435
731.742530	0.600488
732.073570	0.599441
732.404562	0.592161
732.735506	0.593313
733.066401	0.597556
733.397249	0.606182
733.728048	0.618201
734.058798	0.630944
734.389501	0.640468
734.720156	0.650744
735.050762	0.658982
735.381320	0.659751
735.711831	0.668966
736.042293	0.673440
736.372707	0.669535
736.703073	0.674143
737.033391	0.676591
737.363661	0.673059
737.693883	0.668199
738.024056	0.667946
738.354182	0.668251
738.684260	0.657554
739.014290	0.653356
739.344272	0.654047
739.674207	0.648113
740.004093	0.646842
740.333931	0.647906
740.663722	0.647682
740.993464	0.648144
741.323159	0.651794
741.652806	0.657129
741.982405	0.661610
742.311956	0.666860
742.641460	0.669071
742.970915	0.672108
743.300323	0.679711
743.629683	0.685732
743.958996	0.687993
744.288260	0.692128
744.617477	0.698707
744.946647	0.699548
745.275768	0.704055
745.604842	0.705058
745.933869	0.714743
746.262847	0.715254
746.591778	0.709097
746.920662	0.714586
747.249498	0.721610
747.578286	0.712768
747.907027	0.709166
748.235720	0.709629
748.564365	0.704393
748.892963	0.704408
749.221514	0.706686
749.550017	0.712516
749.878473	0.711812
750.206881	0.718671
750.535242	0.720610
750.863555	0.719745
751.191821	0.720935
751.520039	0.723751
751.848210	0.727770
752.176334	0.720747
752.504411	0.721097
752.832440	0.728361
753.160421	0.732299
753.488356	0.730937
753.816243	0.727539
754.144082	0.736260
754.471875	0.739932
754.799620	0.734491
755.127318	0.736105
755.454969	0.737183
755.782572	0.735492
756.110129	0.741081
756.437638	0.742921
756.765100	0.739960
757.092515	0.737982
757.419882	0.737035
757.747203	0.741306
758.074477	0.742088
758.401703	0.739201
758.728882	0.734152
759.056014	0.732878
759.383099	0.732744
759.710138	0.732772
760.037129	0.730528
760.364073	0.724399
760.690970	0.725969
761.017820	0.731868
761.344623	0.727537
761.671379	0.717694
761.998088	0.706583
762.324751	0.684006
762.651366	0.643675
762.977935	0.577308
763.304456	0.525320
763.630931	0.515681
763.957359	0.554700
764.283740	0.598872
764.610074	0.625587
764.936362	0.656183
765.262602	0.683236
765.588796	0.703569
765.914943	0.721948
766.241044	0.738769
766.567097	0.745496
766.893104	0.754957
767.219064	0.761109
767.544978	0.767843
767.870845	0.780522
768.196665	0.784961
768.522438	0.783523
768.848165	0.784947
769.173846	0.793615
769.499479	0.797440
769.825066	0.802172
770.150607	0.806439
770.476101	0.801244
770.801548	0.803673
771.126949	0.813860
771.452303	0.818017
771.777611	0.817409
772.102872	0.815824
772.428087	0.822090
772.753256	0.824433
773.078378	0.826729
773.403453	0.835882
773.728482	0.840184
774.053465	0.833900
774.378401	0.836872
774.703291	0.844760
775.028135	0.844393
775.352932	0.846059
775.677683	0.849524
776.002388	0.849877
776.327046	0.848485
776.651658	0.852490
776.976224	0.855465
777.300743	0.855588
777.625216	0.857138
777.949643	0.859045
778.274024	0.859873
778.598359	0.861186
778.922647	0.859934
779.246889	0.860532
779.571086	0.864907
779.895236	0.867316
780.219339	0.864267
780.543397	0.861518
780.867409	0.860037
781.191374	0.861827
781.515294	0.862724
781.839167	0.862246
782.162995	0.866251
782.486776	0.863012
782.810511	0.863337
783.134201	0.866993
783.457844	0.864214
783.781441	0.866747
784.104993	0.872893
784.428498	0.874207
784.751958	0.868782
785.075372	0.871496
785.398739	0.875082
785.722061	0.871256
786.045337	0.867088
786.368568	0.872361
786.691752	0.875100
787.014891	0.859981
787.337983	0.851260
787.661030	0.844524
787.984031	0.827198
788.306987	0.814306
788.629897	0.816572
788.952760	0.820612
789.275579	0.824242
789.598351	0.839877
789.921078	0.853595
790.243759	0.855019
790.566395	0.860151
790.888984	0.867102
791.211529	0.872821
791.534027	0.874866
791.856480	0.877758
792.178888	0.881688
792.501249	0.884856
792.823566	0.885688
793.145836	0.885750
793.468062	0.887653
793.790241	0.888382
794.112375	0.886060
794.434464	0.881821
794.756507	0.881361
795.078505	0.881049
795.400457	0.875250
795.722364	0.863748
796.044226	0.856080
796.366042	0.855754
796.687812	0.858983
797.009538	0.854883
797.331218	0.857603
797.652852	0.863116
797.974442	0.867448
798.295986	0.867442
798.617484	0.870282
798.938938	0.874215
799.260346	0.878619
799.581709	0.881232
799.903026	0.883992
800.224299	0.884391
800.545526	0.887286
800.866708	0.892653
801.187845	0.895873
801.508936	0.895062
801.829983	0.892644
802.150984	0.895560
802.471940	0.900655
802.792851	0.900038
803.113717	0.901086
803.434538	0.898095
803.755314	0.901015
804.076045	0.903062
804.396731	0.902739
804.717372	0.902933
805.037967	0.903612
805.358518	0.903357
805.679024	0.899873
805.999485	0.899531
806.319901	0.899922
806.640272	0.901791
806.960598	0.899053
807.280879	0.897297
807.601115	0.895187
807.921306	0.899375
808.241453	0.899578
808.561554	0.897156
808.881611	0.897846
809.201623	0.899329
809.521590	0.899071
809.841513	0.898985
810.161390	0.898197
810.481223	0.900292
810.801011	0.903828
811.120755	0.906465
811.440453	0.905260
811.760107	0.903003
812.079716	0.903268
812.399281	0.906902
812.718801	0.909080
813.038276	0.911518
813.357707	0.909346
813.677093	0.906408
813.996434	0.909531
814.315731	0.911807
814.634983	0.913017
814.954191	0.910792
815.273354	0.908073
815.592473	0.904051
815.911547	0.904960
816.230577	0.901398
816.549562	0.899814
816.868502	0.900190
817.187399	0.896523
817.506250	0.890929
817.825058	0.892359
818.143821	0.889811
818.462539	0.883839
818.781213	0.878048
819.099843	0.865189
819.418429	0.850950
819.736970	0.834715
820.055466	0.814771
820.373919	0.788997
820.692327	0.757386
821.010691	0.723382
821.329011	0.648972
821.647286	0.535618
821.965517	0.423271
822.283704	0.381050
822.601847	0.382749
822.919945	0.418221
823.237999	0.450835
823.556010	0.496847
823.873976	0.552071
824.191897	0.600651
824.509775	0.642670
824.827609	0.687860
825.145398	0.709608
825.463144	0.711908
825.780845	0.695235
826.098502	0.676660
826.416116	0.632515
826.733685	0.588964
827.051210	0.581225
827.368692	0.595763
827.686129	0.631902
828.003522	0.684149
828.320872	0.730137
828.638177	0.773009
828.955439	0.804597
829.272656	0.826704
829.589830	0.844303
829.906960	0.858125
830.224046	0.870765
830.541088	0.881174
830.858086	0.884991
831.175041	0.890495
831.491952	0.889996
831.808819	0.888115
832.125642	0.880670
832.442421	0.866535
832.759157	0.845084
833.075849	0.799836
833.392497	0.737506
833.709101	0.697276
834.025662	0.707377
834.342179	0.737492
834.658653	0.776053
834.975083	0.811734
835.291469	0.837602
835.607811	0.858887
835.924110	0.874412
836.240366	0.890889
836.556578	0.906073
836.872746	0.911463
837.188871	0.917951
837.504952	0.922948
837.820990	0.926033
838.136984	0.931241
838.452935	0.932425
838.768842	0.934218
839.084706	0.928927
839.400526	0.902643
839.716303	0.863883
840.032037	0.841842
840.347727	0.846448
840.663373	0.864323
840.978977	0.884321
841.294537	0.906175
841.610054	0.920639
841.925527	0.929641
842.240957	0.935196
842.556344	0.942414
842.871687	0.948525
843.186987	0.954457
843.502244	0.952484
843.817458	0.954335
844.132629	0.957723
844.447756	0.962992
844.762840	0.962717
845.077881	0.962192
845.392879	0.962439
845.707833	0.964264
846.022745	0.967255
846.337613	0.967550
846.652438	0.968014
846.967221	0.967201
847.281960	0.966591
847.596656	0.969444
847.911309	0.967235
848.225919	0.970253
848.540485	0.971152
848.855009	0.971095
849.169490	0.970212
849.483928	0.971783
849.798323	0.972068
850.112675	0.971086
850.426984	0.971601
850.741251	0.972364
851.055474	0.972906
851.369654	0.970961
851.683792	0.971713
851.997887	0.971277
852.311938	0.973305
852.625947	0.971272
852.939914	0.970242
853.253837	0.971534
853.567718	0.972880
853.881555	0.971875
854.195350	0.969661
854.509103	0.971964
854.822812	0.971793
855.136479	0.972016
855.450103	0.972777
855.763685	0.971172
856.077224	0.971324
856.390720	0.972004
856.704173	0.972051
857.017584	0.970036
857.330953	0.969176
857.644278	0.970336
857.957561	0.970717
858.270802	0.969822
858.584000	0.970917
858.897155	0.967728
859.210268	0.970779
859.523339	0.969431
859.836367	0.972206
860.149352	0.972947
860.462295	0.971642
860.775195	0.970865
861.088054	0.971879
861.400869	0.971557
861.713642	0.972378
862.026373	0.973684
862.339062	0.972136
862.651708	0.970109
862.964312	0.970163
863.276873	0.972219
863.589392	0.971092
863.901869	0.969019
864.214303	0.968135
864.526696	0.967062
864.839045	0.966472
865.151353	0.964991
865.463619	0.965121
865.775842	0.965165
866.088023	0.965965
866.400162	0.964677
866.712258	0.964403
867.024313	0.964417
867.336325	0.965987
867.648296	0.966427
867.960224	0.965376
868.272110	0.964314
868.583954	0.965422
868.895755	0.966762
869.207515	0.963158
869.519233	0.961321
869.830909	0.963814
870.142542	0.965469
870.454134	0.963180
870.765684	0.964029
871.077191	0.960814
871.388657	0.961965
871.700081	0.960542
872.011463	0.961542
872.322803	0.961364
872.634101	0.959993
872.945357	0.956879
873.256571	0.956309
873.567744	0.955482
873.878874	0.957522
874.189963	0.955500
874.501010	0.954767
874.812015	0.953118
875.122979	0.955239
875.433900	0.956594
875.744780	0.956862
876.055618	0.954042
876.366415	0.953391
876.677169	0.953226
876.987882	0.953932
877.298554	0.953530
877.609183	0.950418
877.919771	0.947878
878.230317	0.947260
878.540822	0.944636
878.851285	0.939287
879.161707	0.931562
879.472087	0.920230
879.782425	0.904593
880.092722	0.872163
880.402977	0.822359
880.713191	0.763651
881.023363	0.706815
881.333494	0.674236
881.643583	0.646354
881.953631	0.645937
882.263637	0.675131
882.573602	0.713544
882.883526	0.738322
883.193408	0.760396
883.503248	0.782403
883.813048	0.808059
884.122806	0.837471
884.432522	0.858765
884.742197	0.878447
885.051831	0.888101
885.361424	0.896471
885.670975	0.909390
885.980485	0.918571
886.289954	0.924541
886.599382	0.929731
886.908768	0.932942
887.218113	0.939028
887.527417	0.943392
887.836680	0.945881
888.145901	0.946782
888.455082	0.949365
888.764221	0.954383
889.073319	0.956315
889.382376	0.956247
889.691392	0.957039
890.000366	0.957110
890.309300	0.957146
890.618193	0.956429
890.927044	0.954209
891.235855	0.955131
891.544625	0.954149
891.853353	0.955960
892.162041	0.952943
892.470687	0.945908
892.779293	0.941430
893.087858	0.938715
893.396381	0.930455
893.704864	0.918288
894.013306	0.896248
894.321707	0.870107
894.630068	0.856438
894.938387	0.852699
895.246665	0.854062
895.554903	0.864245
895.863100	0.877726
896.171256	0.893926
896.479371	0.912344
896.787446	0.925349
897.095480	0.930577
897.403473	0.933225
897.711425	0.936735
898.019336	0.944966
898.327207	0.947057
898.635038	0.949012
898.942827	0.949126
899.250576	0.952196
899.558284	0.955697
899.865952	0.957986
900.173579	0.959311
900.481165	0.958770
900.788711	0.963108
901.096216	0.964811
901.403681	0.964585
901.711105	0.966490
902.018489	0.967170
902.325832	0.965839
902.633135	0.965288
902.940397	0.959434
903.247619	0.948262
903.554800	0.923576
903.861941	0.886009
904.169041	0.853756
904.476101	0.837050
904.783121	0.838195
905.090100	0.852321
905.397039	0.872901
905.703938	0.894371
906.010796	0.912355
906.317614	0.928255
906.624391	0.939800
906.931129	0.949312
907.237826	0.955830
907.544483	0.962799
907.851099	0.967201
908.157675	0.970730
908.464211	0.972869
908.770707	0.975582
909.077163	0.976714
909.383578	0.976710
909.689954	0.978064
909.996289	0.978658
910.302584	0.981000
910.608839	0.981933
910.915054	0.981803
911.221229	0.981131
911.527363	0.980681
911.833458	0.979594
912.139513	0.980066
912.445527	0.978760
912.751502	0.975410
913.057436	0.976220
913.363331	0.973168
913.669186	0.969903
913.975000	0.964912
914.280775	0.959424
914.586510	0.953185
914.892205	0.940577
915.197859	0.921371
915.503475	0.895391
915.809050	0.877294
916.114585	0.871987
916.420081	0.869916
916.725536	0.866565
917.030952	0.873870
917.336328	0.885600
917.641665	0.900092
917.946961	0.914645
918.252218	0.926647
918.557435	0.934101
918.862612	0.941959
919.167750	0.946848
919.472848	0.951240
919.777906	0.956565
920.082925	0.963107
920.387904	0.966374
920.692843	0.966867
920.997743	0.967626
921.302603	0.970299
921.607423	0.971984
921.912204	0.975620
922.216946	0.974652
922.521647	0.976672
922.826310	0.977826
923.130932	0.978641
923.435516	0.982756
923.740059	0.983032
924.044564	0.980783
924.349028	0.982544
924.653454	0.984932
924.957840	0.987880
925.262186	0.987098
925.566493	0.986297
925.870761	0.987633
926.174989	0.988367
926.479178	0.990825
926.783328	0.991115
927.087438	0.990512
927.391509	0.989377
927.695541	0.992338
927.999533	0.990636
928.303486	0.991953
928.607400	0.992843
928.911275	0.991511
929.215110	0.992231
929.518906	0.992725
929.822663	0.990345
930.126381	0.993457
930.430060	0.992354
930.733699	0.993067
931.037299	0.991243
931.340861	0.992559
931.644383	0.990875
931.947866	0.990421
932.251309	0.992561
932.554714	0.991419
932.858080	0.991747
933.161407	0.992106
933.464694	0.993229
933.767943	0.991123
934.071153	0.992746
934.374323	0.992937
934.677455	0.992551
934.980548	0.993491
935.283602	0.993165
935.586617	0.991872
935.889593	0.992827
936.192530	0.992753
936.495428	0.992880
936.798287	0.992059
937.101108	0.993585
937.403890	0.991293
937.706632	0.990427
938.009336	0.988669
938.312002	0.987830
938.614628	0.986928
938.917216	0.985991
939.219765	0.983566
939.522275	0.984564
939.824747	0.985618
940.127179	0.985265
940.429573	0.986642
940.731929	0.986130
941.034246	0.987895
941.336524	0.987868
941.638763	0.988399
941.940964	0.989384
942.243126	0.988867
942.545250	0.989325
942.847335	0.991201
943.149381	0.990028
943.451389	0.989492
943.753359	0.990920
944.055290	0.992955
944.357182	0.991854
944.659036	0.990195
944.960851	0.990966
945.262628	0.991304
945.564367	0.992719
945.866067	0.992059
946.167729	0.991697
946.469352	0.992111
946.770937	0.990158
947.072484	0.992428
947.373992	0.991778
947.675462	0.991762
947.976893	0.991561
948.278286	0.991905
948.579641	0.994683
948.880958	0.992782
949.182236	0.992567
949.483476	0.993937
949.784678	0.991588
950.085841	0.993304
950.386967	0.992555
950.688054	0.992649
950.989103	0.992672
951.290114	0.990445
951.591087	0.991016
951.892021	0.993241
952.192917	0.990148
952.493776	0.990300
952.794596	0.989629
953.095378	0.990550
953.396122	0.990343
953.696828	0.989568
953.997496	0.990689
954.298126	0.993033
954.598718	0.992149
954.899272	0.992955
955.199788	0.992578
955.500266	0.993888
955.800706	0.994308
956.101108	0.994652
956.401472	0.995193
956.701798	0.995373
957.002087	0.994381
957.302337	0.995477
957.602550	0.996654
957.902724	0.995574
958.202861	0.996206
958.502960	0.997032
958.803022	0.994584
959.103045	0.998545
959.403031	0.997159
959.702979	0.997308
960.002889	0.996313
960.302762	0.996529
960.602596	0.997195
960.902393	0.996387
961.202153	0.997564
961.501875	0.999349
961.801559	0.997252
962.101205	0.996544
962.400814	0.997907
962.700385	0.996836
962.999918	0.996845
963.299414	0.997501
963.598873	0.997521
963.898293	0.996839
964.197677	0.996807
964.497022	0.997327
964.796331	0.998924
965.095601	0.997611
965.394835	0.996976
965.694030	0.998295
965.993189	0.998617
966.292309	0.997145
966.591393	0.998525
966.890439	0.997712
967.189447	0.998301
967.488419	0.997863
967.787353	0.997041
968.086249	0.997571
968.385108	0.997970
968.683930	0.998993
968.982714	0.997854
969.281462	0.998633
969.580172	0.997915
969.878844	0.997528
970.177480	0.997987
970.476078	0.998005
970.774639	0.997862
971.073162	0.997905
971.371649	0.996690
971.670098	0.997273
971.968510	0.998378
972.266885	0.996652
972.565223	0.996230
972.863524	0.996930
973.161788	0.997600
973.460014	0.998865
973.758204	0.997683
974.056356	0.998111
974.354471	0.996401
974.652550	0.997354
974.950591	0.998180
975.248595	0.997473
975.546563	0.997087
975.844493	1.000074
976.142386	0.997158
976.440243	0.998976
976.738062	0.997473
977.035845	0.998403
977.333590	0.997502
977.631299	0.999105
977.928971	0.998038
978.226606	0.997647
978.524204	0.995577
978.821765	0.998225
979.119290	0.997964
979.416777	0.997080
979.714228	0.997210
980.011642	0.996941
980.309020	0.997884
980.606360	0.997212
980.903664	0.999573
981.200931	0.996738
981.498162	0.996904
981.795356	0.995531
982.092513	0.994760
982.389633	0.995381
982.686717	0.992368
982.983764	0.992842
983.280775	0.991902
983.577749	0.991677
983.874686	0.992572
984.171587	0.992504
984.468451	0.995259
984.765279	0.997229
985.062070	0.995254
985.358824	0.995647
985.655543	0.996024
985.952224	0.997820
986.248869	0.997225
986.545478	0.997799
986.842050	1.000293
987.138586	0.996851
987.435086	0.997295
987.731549	1.000173
988.027975	0.997428
988.324366	0.999038
988.620719	0.998098
988.917037	0.996544
989.213318	0.998500
989.509563	0.998908
989.805772	0.999842
990.101944	0.999449
990.398080	0.998633
990.694180	0.998985
990.990244	0.998260
991.286271	0.998114
991.582262	0.998968
991.878217	0.998876
992.174136	0.999340
992.470019	0.999374
992.765865	0.998064
993.061676	0.998576
993.357450	0.998278
993.653188	0.997125
993.948890	0.998413
994.244556	0.998093
994.540186	0.997883
994.835780	0.997133
995.131337	0.998074
995.426859	0.997410
995.722345	0.997900
996.017795	0.996337
996.313208	0.997049
996.608586	0.997457
996.903928	0.998236
997.199234	0.996476
997.494504	0.997385
997.789738	0.995702
998.084936	0.997653
998.380099	0.999146
998.675225	0.998233
998.970316	0.999371
999.265371	0.998887
999.560390	0.998783
999.855373	0.998890
1000.150320	0.999977
1000.445232	0.998677
1000.740108	0.998037
1001.034948	0.999789
1001.329752	1.000087
1001.624521	0.998230
1001.919254	0.998369
1002.213951	0.998123
1002.508613	0.999792
1002.803239	0.999307
1003.097829	0.999699
1003.392384	1.000525
1003.686903	0.999556
1003.981386	0.999614
1004.275834	1.000411
1004.570246	0.998688
1004.864623	0.999266
1005.158964	0.999699
1005.453270	0.999044
1005.747540	0.998491
1006.041775	0.998902
1006.335974	0.999771
1006.630138	0.999678
1006.924266	1.000583
1007.218359	1.001149
1007.512416	0.999490
1007.806438	0.999970
1008.100425	0.999372
1008.394376	0.998942
1008.688292	0.998135
1008.982172	1.000805
1009.276017	0.999470
1009.569827	0.998304
1009.863602	0.999422
1010.157341	1.000604
1010.451045	0.998856
1010.744714	0.999768
1011.038347	0.998932
1011.331945	0.999300
1011.625508	0.998308
1011.919036	0.999789
1012.212528	0.999135
1012.505986	0.998082
1012.799408	0.999576
1013.092795	1.000280
1013.386147	1.000426
1013.679464	0.999748
1013.972745	0.997816
1014.265992	0.997663
1014.559204	0.999309
1014.852380	0.998925
1015.145521	1.000269
1015.438628	0.999757
1015.731699	0.998572
1016.024736	0.997952
1016.317737	0.999019
1016.610703	0.999531
1016.903635	1.001014
1017.196531	0.998961
1017.489393	0.999641
1017.782219	0.999813
1018.075011	0.999175
1018.367768	0.999333
1018.660490	0.999429
1018.953177	0.999429
1019.245829	0.999429
