Dividing Wavelength (nm)	Counts (n)	Blue Motor Position (mm): 0.000000	Red Motor Position (mm): 28.500000	
326.493990	1.001170
326.888308	1.001170
327.282561	1.001170
327.676750	0.999866
328.070874	0.998922
328.464933	1.000010
328.858929	1.000168
329.252859	0.999634
329.646726	0.998717
330.040528	1.000672
330.434265	0.999479
330.827938	1.001481
331.221547	0.999840
331.615091	1.000163
332.008571	0.999312
332.401986	1.000167
332.795338	1.000573
333.188625	0.999453
333.581847	1.001484
333.975006	1.000134
334.368100	1.000321
334.761129	0.999369
335.154095	1.001091
335.546996	0.998108
335.939833	0.992982
336.332606	0.995370
336.725315	0.995404
337.117960	0.997650
337.510540	0.995555
337.903056	0.996696
338.295508	0.995090
338.687896	0.995139
339.080220	0.994025
339.472480	0.994204
339.864676	0.994848
340.256807	0.995708
340.648875	0.996386
341.040879	0.996051
341.432818	0.995812
341.824694	0.995774
342.216506	0.995878
342.608253	0.995730
342.999937	0.995478
343.391557	0.995606
343.783113	0.993971
344.174605	0.996781
344.566033	0.995624
344.957397	0.993630
345.348697	0.994498
345.739934	0.995527
346.131106	0.994565
346.522215	0.994849
346.913260	0.994908
347.304241	0.995025
347.695159	0.996078
348.086012	0.994381
348.476802	0.994994
348.867528	0.995712
349.258191	0.994522
349.648789	0.995915
350.039324	0.995559
350.429796	0.996319
350.820203	0.995227
351.210548	0.994850
351.600828	0.994502
351.991045	0.995553
352.381198	0.993956
352.771288	0.995112
353.161314	0.994426
353.551276	0.996286
353.941175	0.994452
354.331010	0.995830
354.720782	0.996977
355.110490	0.995520
355.500135	0.996961
355.889717	0.993842
356.279235	0.995514
356.668689	0.994389
357.058080	0.995829
357.447408	0.995808
357.836672	0.996845
358.225873	0.996269
358.615010	0.995825
359.004084	0.996765
359.393095	0.995470
359.782043	0.995911
360.170927	0.997112
360.559748	0.996411
360.948505	0.994956
361.337199	0.996142
361.725830	0.996016
362.114398	0.994697
362.502903	0.994954
362.891344	0.997150
363.279722	0.995152
363.668037	0.995266
364.056289	0.995076
364.444478	0.997755
364.832603	0.996028
365.220665	0.994783
365.608665	0.994888
365.996601	0.995759
366.384474	0.995478
366.772284	0.996762
367.160031	0.994371
367.547715	0.993811
367.935336	0.995350
368.322893	0.995762
368.710388	0.994076
369.097820	0.994843
369.485189	0.994682
369.872495	0.995377
370.259738	0.994062
370.646918	0.995767
371.034035	0.996216
371.421090	0.994720
371.808081	0.995208
372.195010	0.996527
372.581875	0.995824
372.968678	0.995284
373.355418	0.994821
373.742096	0.994571
374.128710	0.996481
374.515262	0.995833
374.901751	0.994715
375.288177	0.995591
375.674540	0.996653
376.060841	0.995827
376.447079	0.995590
376.833254	0.996501
377.219367	0.995656
377.605417	0.996510
377.991404	0.995517
378.377329	0.995571
378.763191	0.995703
379.148991	0.996724
379.534727	0.996847
379.920402	0.995797
380.306013	0.996002
380.691563	0.997673
381.077049	0.995545
381.462474	0.997140
381.847835	0.996644
382.233134	0.997068
382.618371	0.996773
383.003545	0.996734
383.388657	0.995383
383.773706	0.997383
384.158693	0.996530
384.543618	0.996739
384.928480	0.997594
385.313280	0.996873
385.698017	0.997619
386.082692	0.997059
386.467305	0.996907
386.851856	0.996997
387.236344	0.996534
387.620770	0.996257
388.005133	0.997284
388.389435	0.998448
388.773674	0.997305
389.157851	0.996732
389.541965	0.997057
389.926018	0.997067
390.310008	0.998066
390.693936	0.997389
391.077802	0.997071
391.461606	0.997334
391.845348	0.997681
392.229027	0.999010
392.612645	0.997778
392.996200	0.998248
393.379694	0.996934
393.763125	0.997996
394.146494	0.997490
394.529801	0.996515
394.913047	0.998374
395.296230	0.996714
395.679351	0.997651
396.062410	0.996889
396.445408	0.999031
396.828343	0.997346
397.211217	0.996895
397.594028	0.996884
397.976778	0.997203
398.359466	0.996780
398.742092	0.996956
399.124656	0.997150
399.507158	0.996499
399.889598	0.997856
400.271977	0.997763
400.654294	0.997910
401.036549	0.998163
401.418742	0.998325
401.800874	0.997779
402.182944	0.998014
402.564952	0.997031
402.946898	0.997869
403.328783	0.997589
403.710606	0.996553
404.092367	0.998296
404.474067	0.997350
404.855705	0.997546
405.237282	0.998193
405.618797	0.997561
406.000250	0.996728
406.381642	0.998295
406.762972	0.997988
407.144240	0.999050
407.525447	0.998944
407.906593	0.996950
408.287677	0.997585
408.668700	0.997363
409.049661	0.997419
409.430560	0.997783
409.811399	0.997032
410.192176	0.997104
410.572891	0.997362
410.953545	0.997628
411.334138	0.996634
411.714669	0.998457
412.095139	0.996943
412.475547	0.998495
412.855894	0.997855
413.236180	0.998849
413.616405	0.998441
413.996568	0.998482
414.376670	0.997682
414.756711	0.997265
415.136691	0.997169
415.516609	0.997288
415.896466	0.997931
416.276262	0.996984
416.655997	0.998635
417.035670	0.997574
417.415283	0.997786
417.794834	0.997489
418.174324	0.997950
418.553753	0.998497
418.933121	0.997208
419.312428	0.997656
419.691674	0.997897
420.070859	0.998157
420.449983	0.997960
420.829045	0.997806
421.208047	0.998516
421.586988	0.998941
421.965867	0.997978
422.344686	0.998355
422.723444	0.998160
423.102141	0.997729
423.480777	0.998197
423.859352	0.998419
424.237866	0.997603
424.616319	0.998146
424.994712	0.998456
425.373044	0.998452
425.751314	0.999226
426.129524	0.997633
426.507673	0.998343
426.885762	0.998768
427.263789	0.998230
427.641756	0.998738
428.019662	0.997798
428.397508	0.996681
428.775292	0.996851
429.153016	0.997330
429.530679	0.998673
429.908282	0.999700
430.285824	0.998138
430.663305	0.997954
431.040726	0.997742
431.418086	0.998593
431.795385	0.998455
432.172624	0.997365
432.549802	0.998004
432.926920	0.998025
433.303977	0.997666
433.680974	0.998438
434.057910	0.998189
434.434786	0.998000
434.811601	0.997469
435.188355	0.997677
435.565050	0.997477
435.941683	0.997477
436.318257	0.998410
436.694770	0.997241
437.071222	0.998394
437.447614	0.997973
437.823946	0.997594
438.200218	0.998495
438.576429	0.998406
438.952580	0.998187
439.328670	0.998245
439.704700	0.998139
440.080670	0.998107
440.456580	0.997674
440.832429	0.997480
441.208218	0.997747
441.583947	0.998316
441.959616	0.997594
442.335224	0.997751
442.710773	0.998638
443.086261	0.997537
443.461689	0.997204
443.837057	0.996963
444.212365	0.996866
444.587612	0.997601
444.962800	0.997746
445.337927	0.998241
445.712995	0.998085
446.088002	0.997736
446.462949	0.997600
446.837837	0.997718
447.212664	0.997438
447.587431	0.997400
447.962139	0.997358
448.336786	0.997691
448.711374	0.997548
449.085901	0.996846
449.460369	0.997620
449.834776	0.996186
450.209124	0.997079
450.583412	0.996237
450.957640	0.996245
451.331808	0.995846
451.705917	0.995404
452.079965	0.994975
452.453954	0.995023
452.827883	0.994449
453.201752	0.994579
453.575562	0.995089
453.949311	0.993552
454.323001	0.992982
454.696632	0.992492
455.070202	0.991825
455.443713	0.990073
455.817164	0.990113
456.190556	0.989596
456.563888	0.988480
456.937160	0.987980
457.310373	0.987106
457.683526	0.985538
458.056619	0.985533
458.429653	0.984670
458.802628	0.982996
459.175542	0.981857
459.548398	0.980450
459.921194	0.977244
460.293930	0.976093
460.666607	0.972683
461.039224	0.969802
461.411782	0.968853
461.784280	0.966426
462.156719	0.967727
462.529099	0.964984
462.901419	0.962912
463.273680	0.960431
463.645882	0.959473
464.018024	0.956835
464.390106	0.954494
464.762130	0.951335
465.134094	0.944701
465.505999	0.936893
465.877845	0.929938
466.249631	0.927194
466.621358	0.926148
466.993026	0.924631
467.364634	0.922697
467.736184	0.920183
468.107674	0.916238
468.479105	0.910931
468.850477	0.909364
469.221790	0.905990
469.593043	0.903057
469.964238	0.898561
470.335373	0.893116
470.706449	0.888567
471.077467	0.883831
471.448425	0.870125
471.819324	0.859912
472.190164	0.855593
472.560945	0.857352
472.931667	0.854992
473.302330	0.849848
473.672934	0.846664
474.043479	0.837759
474.413965	0.832429
474.784393	0.826251
475.154761	0.818838
475.525070	0.811154
475.895321	0.807037
476.265513	0.798813
476.635645	0.791408
477.005719	0.783446
477.375734	0.775469
477.745691	0.766684
478.115588	0.758005
478.485427	0.748231
478.855207	0.737100
479.224928	0.721641
479.594591	0.710798
479.964194	0.704109
480.333739	0.698416
480.703226	0.689076
481.072653	0.681131
481.442022	0.670429
481.811333	0.660576
482.180584	0.655054
482.549777	0.647056
482.918912	0.641310
483.287988	0.632607
483.657005	0.625118
484.025964	0.619923
484.394864	0.610145
484.763706	0.602368
485.132489	0.597739
485.501213	0.589294
485.869879	0.581400
486.238487	0.574326
486.607036	0.566753
486.975527	0.559721
487.343959	0.550663
487.712333	0.541563
488.080648	0.535512
488.448905	0.526472
488.817104	0.520137
489.185244	0.509520
489.553326	0.499703
489.921350	0.486542
490.289315	0.467641
490.657222	0.457974
491.025070	0.451378
491.392861	0.446048
491.760593	0.442895
492.128267	0.438867
492.495883	0.435997
492.863440	0.433143
493.230939	0.430793
493.598380	0.425556
493.965763	0.419745
494.333088	0.416647
494.700354	0.410591
495.067563	0.405085
495.434713	0.401064
495.801805	0.394017
496.168839	0.389787
496.535815	0.384365
496.902733	0.379927
497.269593	0.375401
497.636395	0.369170
498.003139	0.363576
498.369825	0.362356
498.736453	0.354221
499.103023	0.351119
499.469535	0.345881
499.835989	0.341656
500.202385	0.338256
500.568723	0.336998
500.935003	0.329439
501.301226	0.328587
501.667390	0.320429
502.033497	0.314639
502.399546	0.314387
502.765537	0.311847
503.131470	0.307203
503.497345	0.300511
503.863163	0.305806
504.228923	0.295927
504.594625	0.291840
504.960269	0.294037
505.325856	0.286800
505.691385	0.288508
506.056856	0.282925
506.422270	0.280247
506.787625	0.280292
507.152924	0.275730
507.518164	0.274101
507.883347	0.273474
508.248472	0.273324
508.613540	0.266780
508.978550	0.267493
509.343503	0.266333
509.708398	0.262549
510.073236	0.258584
510.438016	0.257528
510.802738	0.256714
511.167403	0.254695
511.532010	0.255264
511.896561	0.249809
512.261053	0.247421
512.625488	0.248440
512.989866	0.247742
513.354186	0.247074
513.718449	0.248407
514.082655	0.243744
514.446803	0.245382
514.810894	0.242253
515.174927	0.244282
515.538904	0.243008
515.902822	0.239396
516.266684	0.241256
516.630488	0.242124
516.994235	0.240139
517.357925	0.238760
517.721558	0.236478
518.085133	0.235720
518.448651	0.235403
518.812112	0.237241
519.175516	0.236331
519.538863	0.233970
519.902152	0.235356
520.265385	0.231698
520.628560	0.233277
520.991678	0.233451
521.354739	0.232230
521.717743	0.233363
522.080690	0.233556
522.443580	0.230795
522.806413	0.231598
523.169189	0.230757
523.531908	0.229451
523.894569	0.232818
524.257174	0.232656
524.619722	0.230163
524.982213	0.231425
525.344647	0.230240
525.707025	0.230734
526.069345	0.228830
526.431608	0.230425
526.793815	0.228286
527.155964	0.232365
527.518057	0.230994
527.880093	0.232000
528.242072	0.230187
528.603995	0.232195
528.965860	0.233975
529.327669	0.232716
529.689421	0.233695
530.051117	0.234351
530.412755	0.231887
530.774337	0.234144
531.135862	0.234517
531.497331	0.233680
531.858743	0.236514
532.220098	0.233579
532.581396	0.236023
532.942638	0.236343
533.303824	0.237293
533.664953	0.236778
534.026025	0.238658
534.387040	0.236674
534.747999	0.236492
535.108902	0.235284
535.469748	0.240157
535.830537	0.238018
536.191270	0.238448
536.551947	0.238204
536.912567	0.238122
537.273131	0.239802
537.633638	0.240086
537.994089	0.240184
538.354483	0.241210
538.714821	0.238155
539.075103	0.237922
539.435328	0.238690
539.795497	0.242567
540.155609	0.238852
540.515665	0.236892
540.875665	0.242539
541.235609	0.241215
541.595496	0.241201
541.955328	0.237855
542.315102	0.240412
542.674821	0.241198
543.034483	0.241529
543.394090	0.241013
543.753640	0.243093
544.113134	0.238218
544.472571	0.241404
544.831953	0.238172
545.191278	0.242536
545.550548	0.241904
545.909761	0.238396
546.268918	0.239528
546.628019	0.237686
546.987064	0.240387
547.346053	0.242414
547.704986	0.240007
548.063863	0.240354
548.422684	0.240383
548.781449	0.242450
549.140158	0.239911
549.498811	0.242775
549.857408	0.245588
550.215949	0.240677
550.574434	0.243941
550.932864	0.241628
551.291237	0.240143
551.649555	0.241937
552.007817	0.241673
552.366022	0.242626
552.724173	0.242646
553.082267	0.242851
553.440305	0.239621
553.798288	0.244378
554.156215	0.240856
554.514086	0.241251
554.871902	0.244626
555.229661	0.243712
555.587365	0.244230
555.945014	0.246911
556.302606	0.243805
556.660143	0.246308
557.017625	0.242529
557.375050	0.245069
557.732421	0.242071
558.089735	0.244055
558.446994	0.244228
558.804197	0.243236
559.161345	0.243178
559.518437	0.246760
559.875474	0.244012
560.232455	0.244046
560.589381	0.245155
560.946251	0.245124
561.303065	0.242775
561.659825	0.244398
562.016528	0.245521
562.373177	0.248312
562.729770	0.245477
563.086307	0.247950
563.442789	0.245601
563.799216	0.248662
564.155587	0.247339
564.511904	0.248208
564.868164	0.248468
565.224370	0.248273
565.580520	0.249844
565.936615	0.250143
566.292654	0.253068
566.648638	0.250026
567.004567	0.251013
567.360441	0.251504
567.716260	0.253442
568.072023	0.250910
568.427732	0.251707
568.783385	0.254573
569.138982	0.252447
569.494525	0.252287
569.850013	0.254929
570.205445	0.253494
570.560823	0.255806
570.916145	0.257681
571.271412	0.256194
571.626625	0.257390
571.981782	0.257885
572.336884	0.258829
572.691931	0.258633
573.046923	0.260002
573.401860	0.261099
573.756743	0.262782
574.111570	0.261711
574.466342	0.262198
574.821059	0.261370
575.175722	0.264200
575.530330	0.264378
575.884882	0.264154
576.239380	0.266078
576.593823	0.266831
576.948211	0.266337
577.302544	0.269475
577.656823	0.269044
578.011047	0.269146
578.365216	0.269779
578.719330	0.271924
579.073389	0.271703
579.427394	0.272672
579.781344	0.273571
580.135239	0.275100
580.489080	0.274612
580.842866	0.277731
581.196597	0.277575
581.550273	0.276395
581.903895	0.277369
582.257463	0.275323
582.610975	0.279060
582.964434	0.278419
583.317837	0.280413
583.671186	0.281027
584.024481	0.281042
584.377721	0.283931
584.730906	0.283916
585.084037	0.283650
585.437113	0.284923
585.790135	0.284678
586.143103	0.287811
586.496016	0.288717
586.848874	0.285869
587.201679	0.286986
587.554428	0.290209
587.907124	0.289191
588.259765	0.289567
588.612352	0.290072
588.964884	0.294089
589.317362	0.293717
589.669786	0.293332
590.022155	0.292088
590.374470	0.291232
590.726731	0.293353
591.078937	0.297905
591.431090	0.294357
591.783188	0.298771
592.135232	0.298994
592.487222	0.299102
592.839157	0.297124
593.191038	0.299543
593.542866	0.301402
593.894639	0.305112
594.246358	0.302768
594.598022	0.302659
594.949633	0.305842
595.301190	0.306747
595.652692	0.305944
596.004141	0.302521
596.355535	0.310175
596.706876	0.310912
597.058162	0.313456
597.409395	0.310432
597.760573	0.307955
598.111698	0.311540
598.462768	0.311989
598.813785	0.313237
599.164748	0.313973
599.515657	0.314657
599.866511	0.318447
600.217312	0.313649
600.568060	0.318627
600.918753	0.314927
601.269392	0.316157
601.619978	0.319519
601.970510	0.316841
602.320988	0.316931
602.671412	0.314783
603.021783	0.317139
603.372100	0.318719
603.722363	0.317923
604.072572	0.319216
604.422728	0.318945
604.772830	0.321019
605.122878	0.320530
605.472872	0.320888
605.822813	0.319301
606.172701	0.321833
606.522534	0.319641
606.872314	0.319520
607.222041	0.320411
607.571714	0.318865
607.921333	0.320133
608.270899	0.319644
608.620411	0.316551
608.969870	0.320324
609.319276	0.320266
609.668627	0.320339
610.017926	0.318487
610.367171	0.317206
610.716362	0.317934
611.065500	0.318454
611.414585	0.318000
611.763616	0.317370
612.112594	0.318066
612.461518	0.317500
612.810389	0.315449
613.159207	0.317271
613.507971	0.319436
613.856682	0.315202
614.205340	0.316599
614.553945	0.313345
614.902496	0.317906
615.250994	0.315508
615.599439	0.316417
615.947830	0.315943
616.296169	0.316590
616.644454	0.316157
616.992686	0.316265
617.340864	0.314466
617.688990	0.318057
618.037063	0.314217
618.385082	0.316186
618.733048	0.313171
619.080961	0.315223
619.428821	0.314960
619.776628	0.314184
620.124382	0.316467
620.472083	0.316617
620.819731	0.316017
621.167326	0.319877
621.514868	0.319498
621.862357	0.323566
622.209793	0.323335
622.557176	0.325529
622.904506	0.326686
623.251783	0.328912
623.599007	0.331146
623.946179	0.330804
624.293297	0.333003
624.640363	0.336646
624.987376	0.337372
625.334336	0.339773
625.681243	0.342011
626.028097	0.342931
626.374899	0.343646
626.721647	0.343665
627.068343	0.346959
627.414987	0.348305
627.761577	0.350606
628.108115	0.348057
628.454600	0.353609
628.801032	0.350780
629.147412	0.353218
629.493739	0.353534
629.840014	0.356320
630.186236	0.354159
630.532405	0.359606
630.878521	0.356865
631.224585	0.359051
631.570597	0.362992
631.916556	0.361140
632.262462	0.361573
632.608316	0.363157
632.954117	0.364407
633.299866	0.365098
633.645562	0.365312
633.991206	0.370053
634.336797	0.372756
634.682336	0.375089
635.027823	0.377084
635.373257	0.376845
635.718639	0.380759
636.063968	0.380141
636.409245	0.385926
636.754470	0.386166
637.099642	0.388592
637.444762	0.392260
637.789829	0.391241
638.134845	0.394380
638.479808	0.395886
638.824719	0.395105
639.169577	0.399294
639.514383	0.397906
639.859137	0.402358
640.203839	0.401914
640.548489	0.402346
640.893086	0.404217
641.237632	0.405116
641.582125	0.404328
641.926566	0.405526
642.270955	0.405975
642.615292	0.406356
642.959576	0.405373
643.303809	0.405935
643.647990	0.405236
643.992118	0.405950
644.336195	0.409553
644.680219	0.407548
645.024192	0.408355
645.368112	0.401665
645.711981	0.401358
646.055797	0.396723
646.399562	0.399049
646.743274	0.391040
647.086935	0.388467
647.430544	0.389015
647.774101	0.387500
648.117606	0.387062
648.461059	0.387278
648.804460	0.389857
649.147810	0.394963
649.491108	0.397378
649.834354	0.398220
650.177548	0.404259
650.520690	0.409324
650.863781	0.410225
651.206820	0.410069
651.549807	0.414154
651.892742	0.417736
652.235626	0.418027
652.578458	0.418355
652.921238	0.424756
653.263967	0.422548
653.606644	0.426562
653.949269	0.426434
654.291843	0.429924
654.634365	0.426869
654.976836	0.430031
655.319255	0.430060
655.661622	0.431786
656.003938	0.432254
656.346203	0.435245
656.688416	0.432596
657.030577	0.436166
657.372687	0.437876
657.714746	0.438958
658.056753	0.435558
658.398708	0.439429
658.740612	0.440617
659.082465	0.436504
659.424266	0.437462
659.766016	0.436851
660.107715	0.439588
660.449362	0.438866
660.790958	0.439450
661.132503	0.439022
661.473996	0.437158
661.815438	0.438196
662.156829	0.438595
662.498168	0.439279
662.839456	0.440009
663.180693	0.438143
663.521879	0.438031
663.863013	0.439103
664.204097	0.437703
664.545129	0.434292
664.886110	0.435295
665.227040	0.432256
665.567918	0.434797
665.908746	0.432423
666.249522	0.433011
666.590248	0.433778
666.930922	0.431953
667.271545	0.430938
667.612118	0.430596
667.952639	0.432559
668.293109	0.431031
668.633528	0.433665
668.973896	0.433736
669.314213	0.434095
669.654480	0.435411
669.994695	0.436103
670.334859	0.436845
670.674973	0.437025
671.015035	0.437242
671.355047	0.437155
671.695008	0.438458
672.034918	0.439886
672.374777	0.439773
672.714585	0.440180
673.054342	0.440552
673.394049	0.440779
673.733705	0.438450
674.073310	0.439483
674.412864	0.442433
674.752368	0.443135
675.091820	0.443561
675.431223	0.447705
675.770574	0.447567
676.109875	0.450561
676.449125	0.450492
676.788324	0.452721
677.127473	0.458576
677.466571	0.458360
677.805619	0.459497
678.144616	0.460782
678.483562	0.462090
678.822458	0.465600
679.161303	0.466150
679.500098	0.466132
679.838842	0.468323
680.177535	0.467596
680.516179	0.465913
680.854771	0.464886
681.193314	0.458795
681.531805	0.450183
681.870247	0.438381
682.208638	0.430972
682.546978	0.429974
682.885268	0.431094
683.223508	0.438174
683.561697	0.441395
683.899836	0.444793
684.237925	0.447822
684.575963	0.449987
684.913951	0.452943
685.251889	0.449042
685.589776	0.450977
685.927614	0.453414
686.265401	0.447858
686.603137	0.449442
686.940824	0.443014
687.278460	0.441350
687.616046	0.440369
687.953582	0.435688
688.291068	0.437222
688.628504	0.432526
688.965889	0.435032
689.303224	0.439125
689.640510	0.443101
689.977745	0.449037
690.314930	0.456943
690.652065	0.460961
690.989150	0.468531
691.326185	0.474820
691.663170	0.479683
692.000105	0.486957
692.336990	0.493798
692.673825	0.496137
693.010610	0.503164
693.347345	0.508317
693.684030	0.509546
694.020665	0.515174
694.357251	0.523548
694.693786	0.523233
695.030272	0.527715
695.366707	0.530702
695.703093	0.533527
696.039429	0.531868
696.375716	0.533357
696.711952	0.536440
697.048139	0.538472
697.384276	0.540070
697.720363	0.538677
698.056400	0.538061
698.392388	0.543285
698.728326	0.546637
699.064214	0.548997
699.400053	0.549706
699.735842	0.553130
700.071581	0.555789
700.407270	0.559353
700.742910	0.561515
701.078501	0.568078
701.414042	0.568655
701.749533	0.571092
702.084974	0.579933
702.420366	0.572104
702.755709	0.579660
703.091002	0.587339
703.426246	0.581349
703.761440	0.586924
704.096584	0.591040
704.431679	0.589024
704.766725	0.591618
705.101721	0.592613
705.436668	0.588527
705.771565	0.595568
706.106413	0.592147
706.441212	0.587514
706.775961	0.586744
707.110661	0.589313
707.445311	0.586534
707.779913	0.582732
708.114465	0.581566
708.448967	0.577867
708.783421	0.570269
709.117825	0.564699
709.452180	0.565137
709.786485	0.558471
710.120742	0.549064
710.454949	0.550815
710.789107	0.543010
711.123216	0.534255
711.457275	0.535615
711.791286	0.526750
712.125247	0.525655
712.459159	0.537115
712.793023	0.529155
713.126837	0.532424
713.460602	0.533458
713.794318	0.543193
714.127985	0.541911
714.461602	0.551695
714.795171	0.555526
715.128691	0.561768
715.462162	0.570165
715.795584	0.575203
716.128957	0.578134
716.462281	0.584548
716.795556	0.588521
717.128782	0.593866
717.461960	0.602854
717.795088	0.601173
718.128167	0.607655
718.461198	0.616095
718.794180	0.617166
719.127113	0.619014
719.459997	0.623875
719.792833	0.629353
720.125619	0.630510
720.458357	0.636882
720.791046	0.636654
721.123686	0.639513
721.456278	0.646368
721.788821	0.643788
722.121315	0.647951
722.453761	0.651793
722.786158	0.650062
723.118506	0.646760
723.450805	0.654381
723.783056	0.649797
724.115259	0.647936
724.447412	0.647390
724.779518	0.649162
725.111574	0.648010
725.443582	0.643094
725.775542	0.645129
726.107453	0.636953
726.439315	0.637294
726.771129	0.635827
727.102895	0.629385
727.434612	0.622023
727.766281	0.620328
728.097901	0.619983
728.429473	0.619757
728.760996	0.617678
729.092471	0.617433
729.423897	0.621218
729.755276	0.620331
730.086606	0.620480
730.417887	0.614987
730.749120	0.605894
731.080305	0.596600
731.411442	0.593244
731.742530	0.598033
732.073570	0.596860
732.404562	0.589032
732.735506	0.591264
733.066401	0.595571
733.397249	0.604808
733.728048	0.615819
734.058798	0.628716
734.389501	0.639064
734.720156	0.648358
735.050762	0.657219
735.381320	0.657219
735.711831	0.667157
736.042293	0.671882
736.372707	0.667253
736.703073	0.671877
737.033391	0.674651
737.363661	0.671604
737.693883	0.665920
738.024056	0.664893
738.354182	0.665547
738.684260	0.655643
739.014290	0.651654
739.344272	0.652153
739.674207	0.645653
740.004093	0.644943
740.333931	0.645346
740.663722	0.645285
740.993464	0.645422
741.323159	0.649654
741.652806	0.654043
741.982405	0.659628
742.311956	0.663701
742.641460	0.666438
742.970915	0.669074
743.300323	0.677543
743.629683	0.684274
743.958996	0.685684
744.288260	0.690147
744.617477	0.696038
744.946647	0.697370
745.275768	0.703534
745.604842	0.703335
745.933869	0.712407
746.262847	0.713136
746.591778	0.707224
746.920662	0.712480
747.249498	0.720511
747.578286	0.710141
747.907027	0.706161
748.235720	0.707107
748.564365	0.702316
748.892963	0.701904
749.221514	0.704934
749.550017	0.709661
749.878473	0.710015
750.206881	0.715954
750.535242	0.717430
750.863555	0.716956
751.191821	0.718261
751.520039	0.721744
751.848210	0.726844
752.176334	0.718004
752.504411	0.718251
752.832440	0.726373
753.160421	0.729667
753.488356	0.728467
753.816243	0.725720
754.144082	0.733758
754.471875	0.737430
754.799620	0.733141
755.127318	0.734147
755.454969	0.734823
755.782572	0.733382
756.110129	0.739029
756.437638	0.740720
756.765100	0.737878
757.092515	0.736346
757.419882	0.735490
757.747203	0.739984
758.074477	0.739516
758.401703	0.736558
758.728882	0.731647
759.056014	0.730369
759.383099	0.729710
759.710138	0.730498
760.037129	0.727072
760.364073	0.721147
760.690970	0.723386
761.017820	0.729801
761.344623	0.724557
761.671379	0.716521
761.998088	0.704091
762.324751	0.681819
762.651366	0.641261
762.977935	0.574015
763.304456	0.521768
763.630931	0.513113
763.957359	0.551404
764.283740	0.595844
764.610074	0.622518
764.936362	0.653809
765.262602	0.679792
765.588796	0.701676
765.914943	0.719371
766.241044	0.737553
766.567097	0.743753
766.893104	0.753314
767.219064	0.759634
767.544978	0.765132
767.870845	0.779436
768.196665	0.782767
768.522438	0.781097
768.848165	0.782552
769.173846	0.790620
769.499479	0.795865
769.825066	0.799550
770.150607	0.804449
770.476101	0.799090
770.801548	0.801241
771.126949	0.812215
771.452303	0.815319
771.777611	0.815089
772.102872	0.813668
772.428087	0.819401
772.753256	0.822608
773.078378	0.825255
773.403453	0.833357
773.728482	0.838390
774.053465	0.831498
774.378401	0.834295
774.703291	0.843617
775.028135	0.842493
775.352932	0.844706
775.677683	0.847525
776.002388	0.847326
776.327046	0.847258
776.651658	0.850901
776.976224	0.853678
777.300743	0.853588
777.625216	0.855606
777.949643	0.857872
778.274024	0.857919
778.598359	0.859967
778.922647	0.858006
779.246889	0.858303
779.571086	0.862152
779.895236	0.864382
780.219339	0.862535
780.543397	0.858247
780.867409	0.858313
781.191374	0.860911
781.515294	0.860451
781.839167	0.859843
782.162995	0.863993
782.486776	0.860172
782.810511	0.861715
783.134201	0.864964
783.457844	0.863592
783.781441	0.864939
784.104993	0.871260
784.428498	0.871550
784.751958	0.867501
785.075372	0.869530
785.398739	0.873809
785.722061	0.869462
786.045337	0.865372
786.368568	0.870331
786.691752	0.872776
787.014891	0.858247
787.337983	0.849787
787.661030	0.841910
787.984031	0.824885
788.306987	0.812047
788.629897	0.814578
788.952760	0.818662
789.275579	0.822446
789.598351	0.838109
789.921078	0.850933
790.243759	0.852759
790.566395	0.857273
790.888984	0.864962
791.211529	0.870175
791.534027	0.873270
791.856480	0.875290
792.178888	0.880188
792.501249	0.883033
792.823566	0.882702
793.145836	0.884298
793.468062	0.885471
793.790241	0.886480
794.112375	0.883788
794.434464	0.879279
794.756507	0.878967
795.078505	0.879506
795.400457	0.873252
795.722364	0.862209
796.044226	0.854986
796.366042	0.852953
796.687812	0.857060
797.009538	0.853255
797.331218	0.856038
797.652852	0.860864
797.974442	0.865767
798.295986	0.864966
798.617484	0.867640
798.938938	0.872701
799.260346	0.877426
799.581709	0.878862
799.903026	0.881423
800.224299	0.882136
800.545526	0.885853
800.866708	0.890946
801.187845	0.893107
801.508936	0.892211
801.829983	0.891264
802.150984	0.893076
802.471940	0.898437
802.792851	0.897629
803.113717	0.899289
803.434538	0.897359
803.755314	0.899848
804.076045	0.901013
804.396731	0.901450
804.717372	0.900614
805.037967	0.902646
805.358518	0.901411
805.679024	0.897589
805.999485	0.898380
806.319901	0.897932
806.640272	0.899320
806.960598	0.898260
807.280879	0.894430
807.601115	0.894455
807.921306	0.897447
808.241453	0.897879
808.561554	0.895373
808.881611	0.894862
809.201623	0.897675
809.521590	0.896560
809.841513	0.899058
810.161390	0.897679
810.481223	0.898992
810.801011	0.902117
811.120755	0.904127
811.440453	0.902843
811.760107	0.902013
812.079716	0.901491
812.399281	0.903984
812.718801	0.906689
813.038276	0.908129
813.357707	0.907508
813.677093	0.904278
813.996434	0.907528
814.315731	0.910137
814.634983	0.910882
814.954191	0.908394
815.273354	0.906317
815.592473	0.902593
815.911547	0.902435
816.230577	0.899984
816.549562	0.896924
816.868502	0.898455
817.187399	0.894323
817.506250	0.888946
817.825058	0.890513
818.143821	0.888238
818.462539	0.882764
818.781213	0.874656
819.099843	0.863255
819.418429	0.848246
819.736970	0.831748
820.055466	0.813100
820.373919	0.786798
820.692327	0.754109
821.010691	0.719366
821.329011	0.643600
821.647286	0.530222
821.965517	0.417316
822.283704	0.374829
822.601847	0.376289
822.919945	0.411740
823.237999	0.444751
823.556010	0.491155
823.873976	0.546117
824.191897	0.596011
824.509775	0.638619
824.827609	0.683107
825.145398	0.705919
825.463144	0.707684
825.780845	0.691167
826.098502	0.672821
826.416116	0.627461
826.733685	0.584151
827.051210	0.575699
827.368692	0.590078
827.686129	0.626657
828.003522	0.679812
828.320872	0.726558
828.638177	0.770934
828.955439	0.801875
829.272656	0.824283
829.589830	0.841168
829.906960	0.856013
830.224046	0.869162
830.541088	0.878460
830.858086	0.882937
831.175041	0.888700
831.491952	0.888742
831.808819	0.884908
832.125642	0.878874
832.442421	0.863917
832.759157	0.843145
833.075849	0.796992
833.392497	0.734017
833.709101	0.693618
834.025662	0.703030
834.342179	0.733629
834.658653	0.772833
834.975083	0.808502
835.291469	0.834580
835.607811	0.856122
835.924110	0.871924
836.240366	0.889345
836.556578	0.903394
836.872746	0.909804
837.188871	0.916122
837.504952	0.921842
837.820990	0.925124
838.136984	0.927740
838.452935	0.931963
838.768842	0.932757
839.084706	0.926585
839.400526	0.899918
839.716303	0.860816
840.032037	0.838925
840.347727	0.842497
840.663373	0.859505
840.978977	0.882200
841.294537	0.903792
841.610054	0.919817
841.925527	0.926116
842.240957	0.934205
842.556344	0.941157
842.871687	0.947017
843.186987	0.951058
843.502244	0.950032
843.817458	0.953505
844.132629	0.955473
844.447756	0.960709
844.762840	0.960757
845.077881	0.961260
845.392879	0.960274
845.707833	0.963154
846.022745	0.965900
846.337613	0.966484
846.652438	0.967251
846.967221	0.965198
847.281960	0.965758
847.596656	0.967823
847.911309	0.966514
848.225919	0.968398
848.540485	0.967638
848.855009	0.969161
849.169490	0.969431
849.483928	0.969874
849.798323	0.970018
850.112675	0.970861
850.426984	0.968877
850.741251	0.970823
851.055474	0.971740
851.369654	0.968190
851.683792	0.969867
851.997887	0.970517
852.311938	0.970441
852.625947	0.970227
852.939914	0.969514
853.253837	0.970961
853.567718	0.970489
853.881555	0.970913
854.195350	0.969133
854.509103	0.970338
854.822812	0.970938
855.136479	0.971351
855.450103	0.970473
855.763685	0.969396
856.077224	0.969352
856.390720	0.971120
856.704173	0.970317
857.017584	0.969579
857.330953	0.968058
857.644278	0.968306
857.957561	0.969821
858.270802	0.969648
858.584000	0.968578
858.897155	0.968015
859.210268	0.968548
859.523339	0.969166
859.836367	0.971040
860.149352	0.971438
860.462295	0.969530
860.775195	0.970444
861.088054	0.970764
861.400869	0.969920
861.713642	0.971336
862.026373	0.971115
862.339062	0.971541
862.651708	0.968385
862.964312	0.968472
863.276873	0.969433
863.589392	0.969352
863.901869	0.967192
864.214303	0.964817
864.526696	0.964247
864.839045	0.964631
865.151353	0.962974
865.463619	0.963574
865.775842	0.962883
866.088023	0.963348
866.400162	0.962468
866.712258	0.963624
867.024313	0.963446
867.336325	0.964420
867.648296	0.963864
867.960224	0.963368
868.272110	0.961970
868.583954	0.964949
868.895755	0.964292
869.207515	0.963104
869.519233	0.960897
869.830909	0.962547
870.142542	0.963710
870.454134	0.962837
870.765684	0.961222
871.077191	0.958752
871.388657	0.959181
871.700081	0.959457
872.011463	0.959501
872.322803	0.958576
872.634101	0.957605
872.945357	0.955197
873.256571	0.954064
873.567744	0.953522
873.878874	0.954481
874.189963	0.953394
874.501010	0.952246
874.812015	0.950761
875.122979	0.952691
875.433900	0.953831
875.744780	0.954328
876.055618	0.951837
876.366415	0.950467
876.677169	0.951576
876.987882	0.952526
877.298554	0.952152
877.609183	0.948449
877.919771	0.947112
878.230317	0.944546
878.540822	0.941999
878.851285	0.936482
879.161707	0.928645
879.472087	0.917613
879.782425	0.901437
880.092722	0.868481
880.402977	0.817085
880.713191	0.757793
881.023363	0.700291
881.333494	0.667253
881.643583	0.638971
881.953631	0.638148
882.263637	0.666873
882.573602	0.706506
882.883526	0.731865
883.193408	0.754640
883.503248	0.776012
883.813048	0.802452
884.122806	0.831498
884.432522	0.855395
884.742197	0.874414
885.051831	0.884270
885.361424	0.893928
885.670975	0.905397
885.980485	0.917001
886.289954	0.920317
886.599382	0.926911
886.908768	0.930979
887.218113	0.936297
887.527417	0.941311
887.836680	0.943503
888.145901	0.945067
888.455082	0.947519
888.764221	0.952434
889.073319	0.954010
889.382376	0.954389
889.691392	0.954593
890.000366	0.954302
890.309300	0.955534
890.618193	0.954707
890.927044	0.952238
891.235855	0.953403
891.544625	0.952931
891.853353	0.953509
892.162041	0.950231
892.470687	0.944941
892.779293	0.939805
893.087858	0.935519
893.396381	0.929331
893.704864	0.915367
894.013306	0.892660
894.321707	0.866008
894.630068	0.851495
894.938387	0.847749
895.246665	0.848136
895.554903	0.860830
895.863100	0.873719
896.171256	0.889652
896.479371	0.908590
896.787446	0.922108
897.095480	0.927602
897.403473	0.930565
897.711425	0.934292
898.019336	0.941877
898.327207	0.944969
898.635038	0.947626
898.942827	0.946600
899.250576	0.950312
899.558284	0.953263
899.865952	0.956149
900.173579	0.957084
900.481165	0.956459
900.788711	0.961755
901.096216	0.962648
901.403681	0.963411
901.711105	0.964278
902.018489	0.964441
902.325832	0.964109
902.633135	0.963238
902.940397	0.957439
903.247619	0.944771
903.554800	0.921321
903.861941	0.882130
904.169041	0.848212
904.476101	0.831066
904.783121	0.832336
905.090100	0.848321
905.397039	0.868129
905.703938	0.890212
906.010796	0.908890
906.317614	0.925333
906.624391	0.936753
906.931129	0.946604
907.237826	0.954069
907.544483	0.960914
907.851099	0.963380
908.157675	0.968242
908.464211	0.971072
908.770707	0.973223
909.077163	0.975620
909.383578	0.975736
909.689954	0.975405
909.996289	0.977059
910.302584	0.977954
910.608839	0.980044
910.915054	0.978464
911.221229	0.979378
911.527363	0.977156
911.833458	0.977321
912.139513	0.978191
912.445527	0.977447
912.751502	0.974617
913.057436	0.973018
913.363331	0.971637
913.669186	0.966912
913.975000	0.963100
914.280775	0.956803
914.586510	0.950066
914.892205	0.937262
915.197859	0.916892
915.503475	0.890638
915.809050	0.870986
916.114585	0.867538
916.420081	0.864280
916.725536	0.861106
917.030952	0.868347
917.336328	0.880042
917.641665	0.894935
917.946961	0.910020
918.252218	0.921567
918.557435	0.930978
918.862612	0.938685
919.167750	0.944875
919.472848	0.949577
919.777906	0.954301
920.082925	0.960276
920.387904	0.963318
920.692843	0.965169
920.997743	0.965963
921.302603	0.968807
921.607423	0.970329
921.912204	0.972876
922.216946	0.972712
922.521647	0.974408
922.826310	0.975893
923.130932	0.977717
923.435516	0.977497
923.740059	0.979744
924.044564	0.978231
924.349028	0.981110
924.653454	0.983695
924.957840	0.985676
925.262186	0.986047
925.566493	0.983474
925.870761	0.984757
926.174989	0.986915
926.479178	0.988549
926.783328	0.988629
927.087438	0.988982
927.391509	0.988789
927.695541	0.990285
927.999533	0.989351
928.303486	0.990552
928.607400	0.992011
928.911275	0.991176
929.215110	0.990787
929.518906	0.991147
929.822663	0.990154
930.126381	0.991548
930.430060	0.991476
930.733699	0.989739
931.037299	0.989937
931.340861	0.990401
931.644383	0.990412
931.947866	0.989818
932.251309	0.990708
932.554714	0.990946
932.858080	0.990657
933.161407	0.990414
933.464694	0.991057
933.767943	0.989841
934.071153	0.993370
934.374323	0.992179
934.677455	0.990911
934.980548	0.992785
935.283602	0.990866
935.586617	0.990889
935.889593	0.991273
936.192530	0.990934
936.495428	0.991071
936.798287	0.991133
937.101108	0.991577
937.403890	0.988412
937.706632	0.989376
938.009336	0.987807
938.312002	0.986249
938.614628	0.985629
938.917216	0.983740
939.219765	0.982091
939.522275	0.985014
939.824747	0.983036
940.127179	0.984029
940.429573	0.985329
940.731929	0.984295
941.034246	0.985733
941.336524	0.986821
941.638763	0.986661
941.940964	0.985887
942.243126	0.986866
942.545250	0.988192
942.847335	0.989382
943.149381	0.989192
943.451389	0.989565
943.753359	0.988905
944.055290	0.991329
944.357182	0.989836
944.659036	0.989432
944.960851	0.990046
945.262628	0.990824
945.564367	0.990444
945.866067	0.989693
946.167729	0.990675
946.469352	0.990304
946.770937	0.989363
947.072484	0.991258
947.373992	0.990698
947.675462	0.991470
947.976893	0.990138
948.278286	0.990726
948.579641	0.992836
948.880958	0.991890
949.182236	0.989969
949.483476	0.992019
949.784678	0.990894
950.085841	0.991802
950.386967	0.991482
950.688054	0.992151
950.989103	0.991547
951.290114	0.990291
951.591087	0.989625
951.892021	0.991032
952.192917	0.990126
952.493776	0.989245
952.794596	0.987799
953.095378	0.987372
953.396122	0.987763
953.696828	0.988020
953.997496	0.989510
954.298126	0.992126
954.598718	0.991143
954.899272	0.991118
955.199788	0.990006
955.500266	0.992408
955.800706	0.993139
956.101108	0.993976
956.401472	0.992868
956.701798	0.995329
957.002087	0.993203
957.302337	0.993683
957.602550	0.994736
957.902724	0.995233
958.202861	0.994317
958.502960	0.995509
958.803022	0.993228
959.103045	0.995850
959.403031	0.996027
959.702979	0.994482
960.002889	0.994712
960.302762	0.993782
960.602596	0.996938
960.902393	0.995898
961.202153	0.997715
961.501875	0.997418
961.801559	0.997218
962.101205	0.995796
962.400814	0.996044
962.700385	0.996799
962.999918	0.996183
963.299414	0.995742
963.598873	0.995130
963.898293	0.996853
964.197677	0.996133
964.497022	0.996269
964.796331	0.997536
965.095601	0.996586
965.394835	0.996869
965.694030	0.996584
965.993189	0.996178
966.292309	0.996973
966.591393	0.996721
966.890439	0.997702
967.189447	0.997419
967.488419	0.996530
967.787353	0.997165
968.086249	0.996951
968.385108	0.996381
968.683930	0.996382
968.982714	0.997962
969.281462	0.997801
969.580172	0.997120
969.878844	0.996350
970.177480	0.996960
970.476078	0.997419
970.774639	0.997776
971.073162	0.997715
971.371649	0.996750
971.670098	0.996231
971.968510	0.997037
972.266885	0.996569
972.565223	0.997492
972.863524	0.997273
973.161788	0.996477
973.460014	0.997715
973.758204	0.995529
974.056356	0.996526
974.354471	0.994534
974.652550	0.995861
974.950591	0.996018
975.248595	0.996907
975.546563	0.997637
975.844493	0.997590
976.142386	0.997145
976.440243	0.997225
976.738062	0.997879
977.035845	0.998241
977.333590	0.997818
977.631299	0.997672
977.928971	0.996483
978.226606	0.997240
978.524204	0.996258
978.821765	0.998385
979.119290	0.994815
979.416777	0.996370
979.714228	0.996283
980.011642	0.996479
980.309020	0.997453
980.606360	0.996086
980.903664	0.999627
981.200931	0.995781
981.498162	0.995100
981.795356	0.995973
982.092513	0.994341
982.389633	0.994951
982.686717	0.992225
982.983764	0.991195
983.280775	0.990591
983.577749	0.990326
983.874686	0.992760
984.171587	0.992585
984.468451	0.995137
984.765279	0.995333
985.062070	0.994939
985.358824	0.995497
985.655543	0.995008
985.952224	0.996508
986.248869	0.996470
986.545478	0.997171
986.842050	0.999085
987.138586	0.996400
987.435086	0.997581
987.731549	0.998234
988.027975	0.996298
988.324366	0.997542
988.620719	0.997822
988.917037	0.996229
989.213318	0.997735
989.509563	0.999050
989.805772	0.998844
990.101944	0.997613
990.398080	0.997621
990.694180	0.998154
990.990244	0.998028
991.286271	0.998165
991.582262	0.997785
991.878217	0.997641
992.174136	0.998237
992.470019	0.999490
992.765865	0.997998
993.061676	0.997883
993.357450	0.998330
993.653188	0.996562
993.948890	0.997173
994.244556	0.997636
994.540186	0.996866
994.835780	0.996743
995.131337	0.997571
995.426859	0.995606
995.722345	0.998602
996.017795	0.997257
996.313208	0.996225
996.608586	0.995932
996.903928	0.996672
997.199234	0.995885
997.494504	0.996419
997.789738	0.996569
998.084936	0.996372
998.380099	0.997452
998.675225	0.998906
998.970316	0.999066
999.265371	0.998552
999.560390	0.998258
999.855373	0.998564
1000.150320	0.998896
1000.445232	0.998973
1000.740108	0.997122
1001.034948	0.997188
1001.329752	0.997808
1001.624521	0.999519
1001.919254	0.998815
1002.213951	0.997418
1002.508613	0.996980
1002.803239	1.000280
1003.097829	0.999244
1003.392384	0.999258
1003.686903	0.998301
1003.981386	0.998758
1004.275834	0.998639
1004.570246	0.997804
1004.864623	0.998886
1005.158964	0.998174
1005.453270	0.998583
1005.747540	0.997863
1006.041775	0.999013
1006.335974	0.999573
1006.630138	0.999179
1006.924266	1.000135
1007.218359	1.000164
1007.512416	0.999505
1007.806438	0.998760
1008.100425	0.999291
1008.394376	0.998564
1008.688292	0.998664
1008.982172	1.000858
1009.276017	0.999237
1009.569827	0.998115
1009.863602	0.997948
1010.157341	0.999302
1010.451045	0.999228
1010.744714	0.998456
1011.038347	0.999103
1011.331945	0.998566
1011.625508	0.998678
1011.919036	0.998897
1012.212528	0.998912
1012.505986	0.998412
1012.799408	0.998856
1013.092795	0.999870
1013.386147	0.999103
1013.679464	0.999234
1013.972745	0.998039
1014.265992	0.997600
1014.559204	0.996800
1014.852380	0.998308
1015.145521	0.998466
1015.438628	0.998079
1015.731699	0.998738
1016.024736	1.000702
1016.317737	0.998199
1016.610703	0.998851
1016.903635	0.999136
1017.196531	0.998003
1017.489393	0.999383
1017.782219	0.998536
1018.075011	0.997973
1018.367768	0.999243
1018.660490	0.999816
1018.953177	0.999816
1019.245829	0.999816
