Dividing Wavelength (nm)	Counts (n)	Blue Motor Position (mm): 0.000000	Red Motor Position (mm): 24.500000	
326.493990	1.000990
326.888308	1.000990
327.282561	1.000990
327.676750	0.999826
328.070874	1.000000
328.464933	1.000744
328.858929	1.000145
329.252859	1.000080
329.646726	1.000334
330.040528	1.001241
330.434265	0.999852
330.827938	0.999979
331.221547	1.000771
331.615091	0.999654
332.008571	1.001103
332.401986	1.000049
332.795338	0.999882
333.188625	0.998792
333.581847	1.000403
333.975006	0.999780
334.368100	0.999413
334.761129	1.000300
335.154095	1.000296
335.546996	0.997635
335.939833	0.993958
336.332606	0.994810
336.725315	0.994727
337.117960	0.996209
337.510540	0.993667
337.903056	0.995643
338.295508	0.994026
338.687896	0.995746
339.080220	0.994962
339.472480	0.993082
339.864676	0.995047
340.256807	0.994636
340.648875	0.995750
341.040879	0.995562
341.432818	0.995364
341.824694	0.993991
342.216506	0.994843
342.608253	0.994967
342.999937	0.994151
343.391557	0.995283
343.783113	0.994922
344.174605	0.993691
344.566033	0.994902
344.957397	0.993343
345.348697	0.993980
345.739934	0.994466
346.131106	0.994526
346.522215	0.994509
346.913260	0.993960
347.304241	0.994359
347.695159	0.994355
348.086012	0.993191
348.476802	0.993996
348.867528	0.994246
349.258191	0.994280
349.648789	0.995686
350.039324	0.994401
350.429796	0.995816
350.820203	0.994838
351.210548	0.994383
351.600828	0.995141
351.991045	0.994321
352.381198	0.993635
352.771288	0.994194
353.161314	0.993862
353.551276	0.994645
353.941175	0.993677
354.331010	0.995190
354.720782	0.994086
355.110490	0.993715
355.500135	0.995334
355.889717	0.994363
356.279235	0.994244
356.668689	0.994642
357.058080	0.994414
357.447408	0.994246
357.836672	0.994475
358.225873	0.995516
358.615010	0.995743
359.004084	0.996252
359.393095	0.995209
359.782043	0.994900
360.170927	0.995444
360.559748	0.994963
360.948505	0.994062
361.337199	0.994616
361.725830	0.994529
362.114398	0.995060
362.502903	0.995281
362.891344	0.995422
363.279722	0.993504
363.668037	0.995369
364.056289	0.995167
364.444478	0.995978
364.832603	0.994699
365.220665	0.993808
365.608665	0.994848
365.996601	0.994697
366.384474	0.994567
366.772284	0.994585
367.160031	0.993531
367.547715	0.993106
367.935336	0.994450
368.322893	0.992964
368.710388	0.992594
369.097820	0.994813
369.485189	0.994370
369.872495	0.993693
370.259738	0.993155
370.646918	0.994731
371.034035	0.996086
371.421090	0.993416
371.808081	0.992904
372.195010	0.995163
372.581875	0.994736
372.968678	0.994429
373.355418	0.995110
373.742096	0.994218
374.128710	0.995672
374.515262	0.994883
374.901751	0.995584
375.288177	0.994997
375.674540	0.995596
376.060841	0.994005
376.447079	0.996001
376.833254	0.994803
377.219367	0.995030
377.605417	0.995555
377.991404	0.996721
378.377329	0.993959
378.763191	0.995230
379.148991	0.996388
379.534727	0.996794
379.920402	0.995379
380.306013	0.994769
380.691563	0.996491
381.077049	0.995110
381.462474	0.996033
381.847835	0.995822
382.233134	0.995358
382.618371	0.995443
383.003545	0.995749
383.388657	0.995242
383.773706	0.997557
384.158693	0.995563
384.543618	0.995665
384.928480	0.997100
385.313280	0.995727
385.698017	0.996238
386.082692	0.996114
386.467305	0.996243
386.851856	0.995547
387.236344	0.995085
387.620770	0.996225
388.005133	0.996180
388.389435	0.996469
388.773674	0.995179
389.157851	0.996829
389.541965	0.996650
389.926018	0.996116
390.310008	0.997482
390.693936	0.995643
391.077802	0.996032
391.461606	0.996035
391.845348	0.996389
392.229027	0.996976
392.612645	0.996084
392.996200	0.997163
393.379694	0.995726
393.763125	0.997399
394.146494	0.996374
394.529801	0.995488
394.913047	0.996700
395.296230	0.996827
395.679351	0.997571
396.062410	0.996474
396.445408	0.997722
396.828343	0.997045
397.211217	0.996119
397.594028	0.996592
397.976778	0.996562
398.359466	0.996604
398.742092	0.996655
399.124656	0.995969
399.507158	0.996655
399.889598	0.997074
400.271977	0.997159
400.654294	0.997049
401.036549	0.996550
401.418742	0.996398
401.800874	0.995853
402.182944	0.996072
402.564952	0.995574
402.946898	0.997498
403.328783	0.996479
403.710606	0.996200
404.092367	0.996761
404.474067	0.996808
404.855705	0.996298
405.237282	0.996353
405.618797	0.996096
406.000250	0.996522
406.381642	0.995858
406.762972	0.996646
407.144240	0.996539
407.525447	0.996319
407.906593	0.996762
408.287677	0.996071
408.668700	0.997076
409.049661	0.996243
409.430560	0.996705
409.811399	0.995723
410.192176	0.995618
410.572891	0.996466
410.953545	0.995627
411.334138	0.995643
411.714669	0.996364
412.095139	0.995690
412.475547	0.996753
412.855894	0.996063
413.236180	0.996740
413.616405	0.997060
413.996568	0.997153
414.376670	0.996871
414.756711	0.996520
415.136691	0.997067
415.516609	0.996831
415.896466	0.996421
416.276262	0.994914
416.655997	0.996371
417.035670	0.996252
417.415283	0.996069
417.794834	0.995419
418.174324	0.996287
418.553753	0.996737
418.933121	0.996345
419.312428	0.996277
419.691674	0.995618
420.070859	0.997253
420.449983	0.996009
420.829045	0.996286
421.208047	0.996357
421.586988	0.996747
421.965867	0.996628
422.344686	0.996832
422.723444	0.996591
423.102141	0.996138
423.480777	0.996463
423.859352	0.995968
424.237866	0.995557
424.616319	0.996130
424.994712	0.996198
425.373044	0.996031
425.751314	0.996283
426.129524	0.995872
426.507673	0.995667
426.885762	0.996200
427.263789	0.996073
427.641756	0.995687
428.019662	0.996071
428.397508	0.994624
428.775292	0.994257
429.153016	0.994650
429.530679	0.995483
429.908282	0.994444
430.285824	0.993371
430.663305	0.992880
431.040726	0.992385
431.418086	0.993164
431.795385	0.991301
432.172624	0.989532
432.549802	0.990189
432.926920	0.988434
433.303977	0.987782
433.680974	0.986895
434.057910	0.985209
434.434786	0.984202
434.811601	0.982282
435.188355	0.981449
435.565050	0.979263
435.941683	0.977525
436.318257	0.975513
436.694770	0.972787
437.071222	0.971441
437.447614	0.969608
437.823946	0.966604
438.200218	0.963859
438.576429	0.962195
438.952580	0.958812
439.328670	0.955608
439.704700	0.953360
440.080670	0.950763
440.456580	0.944575
440.832429	0.941314
441.208218	0.939896
441.583947	0.934929
441.959616	0.930393
442.335224	0.927157
442.710773	0.922588
443.086261	0.915652
443.461689	0.913608
443.837057	0.907858
444.212365	0.900840
444.587612	0.897453
444.962800	0.890114
445.337927	0.884728
445.712995	0.884184
446.088002	0.871478
446.462949	0.867576
446.837837	0.861791
447.212664	0.854644
447.587431	0.844157
447.962139	0.828261
448.336786	0.810136
448.711374	0.807629
449.085901	0.813575
449.460369	0.806821
449.834776	0.799734
450.209124	0.785013
450.583412	0.773363
450.957640	0.764991
451.331808	0.760856
451.705917	0.761247
452.079965	0.755183
452.453954	0.741151
452.827883	0.736731
453.201752	0.726554
453.575562	0.723822
453.949311	0.708480
454.323001	0.704972
454.696632	0.695092
455.070202	0.682406
455.443713	0.670021
455.817164	0.660034
456.190556	0.648600
456.563888	0.638423
456.937160	0.629028
457.310373	0.630475
457.683526	0.621096
458.056619	0.616115
458.429653	0.609079
458.802628	0.603413
459.175542	0.592352
459.548398	0.573109
459.921194	0.561345
460.293930	0.554914
460.666607	0.531375
461.039224	0.516759
461.411782	0.506670
461.784280	0.497935
462.156719	0.493304
462.529099	0.488256
462.901419	0.491826
463.273680	0.487759
463.645882	0.481104
464.018024	0.477985
464.390106	0.465924
464.762130	0.448738
465.134094	0.430077
465.505999	0.403081
465.877845	0.375325
466.249631	0.358299
466.621358	0.355885
466.993026	0.358901
467.364634	0.357623
467.736184	0.359215
468.107674	0.361461
468.479105	0.355038
468.850477	0.357402
469.221790	0.358380
469.593043	0.362482
469.964238	0.362574
470.335373	0.358232
470.706449	0.352831
471.077467	0.350356
471.448425	0.312314
471.819324	0.287110
472.190164	0.283551
472.560945	0.306996
472.931667	0.324559
473.302330	0.325613
473.672934	0.334272
474.043479	0.320765
474.413965	0.320063
474.784393	0.321421
475.154761	0.314457
475.525070	0.309723
475.895321	0.313844
476.265513	0.306726
476.635645	0.300619
477.005719	0.298868
477.375734	0.294134
477.745691	0.286356
478.115588	0.281781
478.485427	0.274363
478.855207	0.260514
479.224928	0.242617
479.594591	0.229984
479.964194	0.232645
480.333739	0.232722
480.703226	0.233387
481.072653	0.231222
481.442022	0.226217
481.811333	0.222489
482.180584	0.225260
482.549777	0.230175
482.918912	0.232924
483.287988	0.232247
483.657005	0.231453
484.025964	0.237603
484.394864	0.234569
484.763706	0.234889
485.132489	0.239510
485.501213	0.240375
485.869879	0.238194
486.238487	0.241530
486.607036	0.239052
486.975527	0.243104
487.343959	0.239089
487.712333	0.237977
488.080648	0.239413
488.448905	0.238618
488.817104	0.239616
489.185244	0.234011
489.553326	0.230787
489.921350	0.220419
490.289315	0.202803
490.657222	0.198050
491.025070	0.199251
491.392861	0.201186
491.760593	0.206516
492.128267	0.212196
492.495883	0.217397
492.863440	0.223556
493.230939	0.229904
493.598380	0.231241
493.965763	0.233428
494.333088	0.235702
494.700354	0.237264
495.067563	0.235806
495.434713	0.239041
495.801805	0.237061
496.168839	0.238358
496.535815	0.239605
496.902733	0.239722
497.269593	0.241007
497.636395	0.239060
498.003139	0.239205
498.369825	0.242161
498.736453	0.238615
499.103023	0.240025
499.469535	0.239421
499.835989	0.239804
500.202385	0.240470
500.568723	0.243684
500.935003	0.239043
501.301226	0.243308
501.667390	0.237330
502.033497	0.235707
502.399546	0.238400
502.765537	0.239833
503.131470	0.238725
503.497345	0.234830
503.863163	0.243662
504.228923	0.236361
504.594625	0.235192
504.960269	0.240602
505.325856	0.235811
505.691385	0.239936
506.056856	0.236891
506.422270	0.236093
506.787625	0.238615
507.152924	0.236070
507.518164	0.236248
507.883347	0.238213
508.248472	0.239695
508.613540	0.234687
508.978550	0.237581
509.343503	0.237817
509.708398	0.235533
510.073236	0.233062
510.438016	0.232887
510.802738	0.233924
511.167403	0.233062
511.532010	0.234856
511.896561	0.230543
512.261053	0.229223
512.625488	0.231120
512.989866	0.231477
513.354186	0.231838
513.718449	0.233450
514.082655	0.229939
514.446803	0.232311
514.810894	0.229966
515.174927	0.232421
515.538904	0.231857
515.902822	0.228962
516.266684	0.231314
516.630488	0.232618
516.994235	0.231210
517.357925	0.230137
517.721558	0.228496
518.085133	0.227992
518.448651	0.228188
518.812112	0.230221
519.175516	0.229590
519.538863	0.227775
519.902152	0.228923
520.265385	0.225895
520.628560	0.227749
520.991678	0.228253
521.354739	0.227122
521.717743	0.228350
522.080690	0.228818
522.443580	0.225972
522.806413	0.227107
523.169189	0.226225
523.531908	0.225245
523.894569	0.228933
524.257174	0.228608
524.619722	0.226270
524.982213	0.227579
525.344647	0.226339
525.707025	0.227287
526.069345	0.225260
526.431608	0.227195
526.793815	0.225076
527.155964	0.228998
527.518057	0.227978
527.880093	0.229065
528.242072	0.227833
528.603995	0.229470
528.965860	0.231159
529.327669	0.229925
529.689421	0.230994
530.051117	0.232149
530.412755	0.229653
530.774337	0.231848
531.135862	0.232076
531.497331	0.231548
531.858743	0.234389
532.220098	0.230997
532.581396	0.233650
532.942638	0.234145
533.303824	0.235306
533.664953	0.234994
534.026025	0.236676
534.387040	0.234639
534.747999	0.234453
535.108902	0.233360
535.469748	0.238282
535.830537	0.236381
536.191270	0.236523
536.551947	0.236347
536.912567	0.236169
537.273131	0.238155
537.633638	0.237882
537.994089	0.238643
538.354483	0.239585
538.714821	0.236630
539.075103	0.236454
539.435328	0.237217
539.795497	0.240823
540.155609	0.237389
540.515665	0.235623
540.875665	0.241120
541.235609	0.239643
541.595496	0.239449
541.955328	0.236558
542.315102	0.239311
542.674821	0.239749
543.034483	0.240126
543.394090	0.240022
543.753640	0.241536
544.113134	0.236617
544.472571	0.239979
544.831953	0.236962
545.191278	0.240899
545.550548	0.240488
545.909761	0.237209
546.268918	0.238099
546.628019	0.236185
546.987064	0.238977
547.346053	0.240760
547.704986	0.238837
548.063863	0.239126
548.422684	0.239145
548.781449	0.240958
549.140158	0.238784
549.498811	0.241496
549.857408	0.244697
550.215949	0.239671
550.574434	0.242430
550.932864	0.240288
551.291237	0.239045
551.649555	0.240695
552.007817	0.240395
552.366022	0.241173
552.724173	0.241652
553.082267	0.241569
553.440305	0.238423
553.798288	0.243378
554.156215	0.239729
554.514086	0.240169
554.871902	0.243627
555.229661	0.242696
555.587365	0.243093
555.945014	0.245901
556.302606	0.242665
556.660143	0.245148
557.017625	0.241861
557.375050	0.243684
557.732421	0.241101
558.089735	0.242824
558.446994	0.242880
558.804197	0.242209
559.161345	0.241976
559.518437	0.245483
559.875474	0.243172
560.232455	0.242596
560.589381	0.243742
560.946251	0.244149
561.303065	0.241539
561.659825	0.243364
562.016528	0.244413
562.373177	0.247328
562.729770	0.244450
563.086307	0.246768
563.442789	0.244609
563.799216	0.247324
564.155587	0.245967
564.511904	0.247269
564.868164	0.247636
565.224370	0.247220
565.580520	0.248887
565.936615	0.249066
566.292654	0.251786
566.648638	0.248795
567.004567	0.249670
567.360441	0.250446
567.716260	0.252272
568.072023	0.250163
568.427732	0.250858
568.783385	0.253401
569.138982	0.251423
569.494525	0.250905
569.850013	0.253909
570.205445	0.252354
570.560823	0.254869
570.916145	0.256849
571.271412	0.255382
571.626625	0.256598
571.981782	0.256906
572.336884	0.257896
572.691931	0.257594
573.046923	0.258694
573.401860	0.260314
573.756743	0.261661
574.111570	0.260551
574.466342	0.261013
574.821059	0.260369
575.175722	0.263218
575.530330	0.262809
575.884882	0.263010
576.239380	0.265270
576.593823	0.265516
576.948211	0.265262
577.302544	0.268541
577.656823	0.267765
578.011047	0.268067
578.365216	0.268396
578.719330	0.270518
579.073389	0.270666
579.427394	0.272122
579.781344	0.272607
580.135239	0.274142
580.489080	0.273644
580.842866	0.276730
581.196597	0.276525
581.550273	0.275304
581.903895	0.276127
582.257463	0.274244
582.610975	0.277985
582.964434	0.277131
583.317837	0.279538
583.671186	0.280009
584.024481	0.280030
584.377721	0.282293
584.730906	0.283228
585.084037	0.282123
585.437113	0.284203
585.790135	0.283595
586.143103	0.286330
586.496016	0.287591
586.848874	0.285486
587.201679	0.286049
587.554428	0.289304
587.907124	0.287942
588.259765	0.288603
588.612352	0.289352
588.964884	0.292972
589.317362	0.292267
589.669786	0.292626
590.022155	0.291159
590.374470	0.290571
590.726731	0.292610
591.078937	0.297240
591.431090	0.293552
591.783188	0.297726
592.135232	0.298096
592.487222	0.297942
592.839157	0.296145
593.191038	0.298676
593.542866	0.300547
593.894639	0.303937
594.246358	0.301920
594.598022	0.301492
594.949633	0.304879
595.301190	0.305728
595.652692	0.304885
596.004141	0.301437
596.355535	0.309371
596.706876	0.309993
597.058162	0.312206
597.409395	0.309444
597.760573	0.306939
598.111698	0.310193
598.462768	0.311077
598.813785	0.312239
599.164748	0.313380
599.515657	0.313795
599.866511	0.317267
600.217312	0.312114
600.568060	0.317910
600.918753	0.314197
601.269392	0.314843
601.619978	0.318221
601.970510	0.315874
602.320988	0.316156
602.671412	0.313830
603.021783	0.316291
603.372100	0.317528
603.722363	0.317691
604.072572	0.318178
604.422728	0.317761
604.772830	0.319996
605.122878	0.319298
605.472872	0.319859
605.822813	0.318634
606.172701	0.321277
606.522534	0.318725
606.872314	0.318269
607.222041	0.319426
607.571714	0.317459
607.921333	0.318879
608.270899	0.318855
608.620411	0.315124
608.969870	0.319447
609.319276	0.319300
609.668627	0.319311
610.017926	0.317877
610.367171	0.316437
610.716362	0.317351
611.065500	0.317383
611.414585	0.316260
611.763616	0.316752
612.112594	0.317062
612.461518	0.316583
612.810389	0.314299
613.159207	0.316326
613.507971	0.318544
613.856682	0.313907
614.205340	0.315469
614.553945	0.312168
614.902496	0.316364
615.250994	0.314266
615.599439	0.315291
615.947830	0.314382
616.296169	0.315481
616.644454	0.315082
616.992686	0.315065
617.340864	0.312829
617.688990	0.316491
618.037063	0.313113
618.385082	0.315095
618.733048	0.311796
619.080961	0.314273
619.428821	0.313826
619.776628	0.313378
620.124382	0.315006
620.472083	0.315271
620.819731	0.315013
621.167326	0.318593
621.514868	0.318477
621.862357	0.322927
622.209793	0.322391
622.557176	0.324341
622.904506	0.325359
623.251783	0.327491
623.599007	0.329930
623.946179	0.329912
624.293297	0.331967
624.640363	0.335563
624.987376	0.336271
625.334336	0.338805
625.681243	0.340635
626.028097	0.341448
626.374899	0.342540
626.721647	0.342243
627.068343	0.345902
627.414987	0.346960
627.761577	0.349014
628.108115	0.347459
628.454600	0.352514
628.801032	0.349871
629.147412	0.352030
629.493739	0.352188
629.840014	0.355323
630.186236	0.352635
630.532405	0.358314
630.878521	0.355697
631.224585	0.358344
631.570597	0.361928
631.916556	0.360170
632.262462	0.360476
632.608316	0.362447
632.954117	0.363212
633.299866	0.363575
633.645562	0.364363
633.991206	0.368368
634.336797	0.371838
634.682336	0.374000
635.027823	0.375336
635.373257	0.376198
635.718639	0.379676
636.063968	0.378262
636.409245	0.384713
636.754470	0.385037
637.099642	0.387573
637.444762	0.390639
637.789829	0.390019
638.134845	0.393160
638.479808	0.394056
638.824719	0.394068
639.169577	0.398141
639.514383	0.396819
639.859137	0.400913
640.203839	0.401468
640.548489	0.401462
640.893086	0.402888
641.237632	0.404392
641.582125	0.402939
641.926566	0.404707
642.270955	0.404939
642.615292	0.404602
642.959576	0.404213
643.303809	0.405006
643.647990	0.404024
643.992118	0.404841
644.336195	0.408317
644.680219	0.406554
645.024192	0.407557
645.368112	0.400941
645.711981	0.399763
646.055797	0.395196
646.399562	0.397797
646.743274	0.389902
647.086935	0.387055
647.430544	0.387411
647.774101	0.385669
648.117606	0.386125
648.461059	0.386387
648.804460	0.388547
649.147810	0.393695
649.491108	0.395806
649.834354	0.396923
650.177548	0.402444
650.520690	0.407898
650.863781	0.409220
651.206820	0.408310
651.549807	0.413264
651.892742	0.416896
652.235626	0.416268
652.578458	0.417525
652.921238	0.423337
653.263967	0.421280
653.606644	0.424946
653.949269	0.424869
654.291843	0.429062
654.634365	0.425556
654.976836	0.428845
655.319255	0.428982
655.661622	0.430352
656.003938	0.430829
656.346203	0.433750
656.688416	0.431245
657.030577	0.434757
657.372687	0.436712
657.714746	0.437889
658.056753	0.434164
658.398708	0.438597
658.740612	0.439584
659.082465	0.435526
659.424266	0.436027
659.766016	0.435292
660.107715	0.438171
660.449362	0.437605
660.790958	0.437852
661.132503	0.438229
661.473996	0.435852
661.815438	0.436822
662.156829	0.437297
662.498168	0.437711
662.839456	0.439077
663.180693	0.437226
663.521879	0.436674
663.863013	0.437569
664.204097	0.436619
664.545129	0.433422
664.886110	0.433734
665.227040	0.430809
665.567918	0.433646
665.908746	0.431487
666.249522	0.430773
666.590248	0.432307
666.930922	0.430903
667.271545	0.429223
667.612118	0.429441
667.952639	0.430877
668.293109	0.429508
668.633528	0.432871
668.973896	0.432085
669.314213	0.432326
669.654480	0.434719
669.994695	0.434641
670.334859	0.435663
670.674973	0.435897
671.015035	0.435740
671.355047	0.435660
671.695008	0.437054
672.034918	0.438421
672.374777	0.438225
672.714585	0.439284
673.054342	0.439094
673.394049	0.439131
673.733705	0.436778
674.073310	0.438107
674.412864	0.441022
674.752368	0.441610
675.091820	0.442005
675.431223	0.446237
675.770574	0.446096
676.109875	0.448694
676.449125	0.448833
676.788324	0.451034
677.127473	0.456765
677.466571	0.456692
677.805619	0.458011
678.144616	0.459278
678.483562	0.460679
678.822458	0.463431
679.161303	0.464587
679.500098	0.465125
679.838842	0.466967
680.177535	0.465886
680.516179	0.464963
680.854771	0.463806
681.193314	0.456662
681.531805	0.448569
681.870247	0.436915
682.208638	0.429796
682.546978	0.428719
682.885268	0.429822
683.223508	0.436515
683.561697	0.439792
683.899836	0.442725
684.237925	0.446068
684.575963	0.448926
684.913951	0.451744
685.251889	0.447732
685.589776	0.449555
685.927614	0.452026
686.265401	0.446086
686.603137	0.448040
686.940824	0.441506
687.278460	0.439798
687.616046	0.439500
687.953582	0.433761
688.291068	0.435285
688.628504	0.431240
688.965889	0.433332
689.303224	0.437802
689.640510	0.441442
689.977745	0.447646
690.314930	0.455131
690.652065	0.459772
690.989150	0.467220
691.326185	0.473681
691.663170	0.478133
692.000105	0.485111
692.336990	0.492429
692.673825	0.494303
693.010610	0.501733
693.347345	0.507472
693.684030	0.508738
694.020665	0.514060
694.357251	0.522579
694.693786	0.521861
695.030272	0.526059
695.366707	0.529732
695.703093	0.533220
696.039429	0.530088
696.375716	0.532450
696.711952	0.534373
697.048139	0.536420
697.384276	0.539010
697.720363	0.537160
698.056400	0.536136
698.392388	0.541753
698.728326	0.544648
699.064214	0.548320
699.400053	0.548784
699.735842	0.551427
700.071581	0.555032
700.407270	0.557121
700.742910	0.560186
701.078501	0.567109
701.414042	0.567280
701.749533	0.570214
702.084974	0.578981
702.420366	0.571297
702.755709	0.579123
703.091002	0.587214
703.426246	0.580028
703.761440	0.585907
704.096584	0.591298
704.431679	0.587427
704.766725	0.589598
705.101721	0.591657
705.436668	0.587356
705.771565	0.594473
706.106413	0.590540
706.441212	0.586073
706.775961	0.585365
707.110661	0.588218
707.445311	0.585020
707.779913	0.582027
708.114465	0.579991
708.448967	0.577078
708.783421	0.568625
709.117825	0.563128
709.452180	0.563726
709.786485	0.557463
710.120742	0.546763
710.454949	0.549221
710.789107	0.541538
711.123216	0.532252
711.457275	0.533992
711.791286	0.525195
712.125247	0.523897
712.459159	0.534741
712.793023	0.527425
713.126837	0.531863
713.460602	0.532101
713.794318	0.541826
714.127985	0.539744
714.461602	0.550133
714.795171	0.553354
715.128691	0.561062
715.462162	0.568625
715.795584	0.573916
716.128957	0.577071
716.462281	0.583794
716.795556	0.587454
717.128782	0.592307
717.461960	0.602067
717.795088	0.599734
718.128167	0.606085
718.461198	0.614675
718.794180	0.615336
719.127113	0.618139
719.459997	0.622190
719.792833	0.628672
720.125619	0.629370
720.458357	0.635531
720.791046	0.635264
721.123686	0.638474
721.456278	0.645197
721.788821	0.642326
722.121315	0.646497
722.453761	0.650935
722.786158	0.648453
723.118506	0.645677
723.450805	0.653365
723.783056	0.649098
724.115259	0.645632
724.447412	0.645607
724.779518	0.647269
725.111574	0.645781
725.443582	0.641944
725.775542	0.643915
726.107453	0.636453
726.439315	0.635645
726.771129	0.634270
727.102895	0.628029
727.434612	0.620665
727.766281	0.619270
728.097901	0.618380
728.429473	0.617422
728.760996	0.616574
729.092471	0.615613
729.423897	0.620597
729.755276	0.619350
730.086606	0.619299
730.417887	0.613657
730.749120	0.604499
731.080305	0.595562
731.411442	0.591928
731.742530	0.596772
732.073570	0.595516
732.404562	0.587826
732.735506	0.589335
733.066401	0.594344
733.397249	0.603497
733.728048	0.614219
734.058798	0.626581
734.389501	0.637920
734.720156	0.646915
735.050762	0.654973
735.381320	0.655855
735.711831	0.666314
736.042293	0.670072
736.372707	0.665755
736.703073	0.670972
737.033391	0.673583
737.363661	0.669987
737.693883	0.665701
738.024056	0.664123
738.354182	0.664090
738.684260	0.652938
739.014290	0.649605
739.344272	0.650421
739.674207	0.644432
740.004093	0.643605
740.333931	0.644504
740.663722	0.643994
740.993464	0.644290
741.323159	0.648123
741.652806	0.653304
741.982405	0.658396
742.311956	0.663088
742.641460	0.664098
742.970915	0.668919
743.300323	0.675591
743.629683	0.682793
743.958996	0.685273
744.288260	0.689353
744.617477	0.694494
744.946647	0.696122
745.275768	0.701692
745.604842	0.701633
745.933869	0.711785
746.262847	0.711520
746.591778	0.705497
746.920662	0.711226
747.249498	0.717909
747.578286	0.709553
747.907027	0.704982
748.235720	0.706214
748.564365	0.700707
748.892963	0.700986
749.221514	0.704261
749.550017	0.709362
749.878473	0.709126
750.206881	0.715167
750.535242	0.717016
750.863555	0.716244
751.191821	0.717485
751.520039	0.720174
751.848210	0.725303
752.176334	0.717903
752.504411	0.716736
752.832440	0.724911
753.160421	0.728448
753.488356	0.727113
753.816243	0.724036
754.144082	0.732489
754.471875	0.736330
754.799620	0.731752
755.127318	0.733540
755.454969	0.732669
755.782572	0.732228
756.110129	0.737376
756.437638	0.740407
756.765100	0.736529
757.092515	0.734616
757.419882	0.733894
757.747203	0.739324
758.074477	0.738079
758.401703	0.735752
758.728882	0.730848
759.056014	0.729121
759.383099	0.728191
759.710138	0.729590
760.037129	0.725987
760.364073	0.719668
760.690970	0.722598
761.017820	0.727494
761.344623	0.723683
761.671379	0.715122
761.998088	0.702576
762.324751	0.681260
762.651366	0.638786
762.977935	0.572795
763.304456	0.520342
763.630931	0.510321
763.957359	0.549692
764.283740	0.594023
764.610074	0.621497
764.936362	0.651758
765.262602	0.679481
765.588796	0.700471
765.914943	0.717823
766.241044	0.735480
766.567097	0.742469
766.893104	0.752063
767.219064	0.758698
767.544978	0.764947
767.870845	0.778254
768.196665	0.782853
768.522438	0.779622
768.848165	0.781459
769.173846	0.790124
769.499479	0.795263
769.825066	0.797741
770.150607	0.803337
770.476101	0.797690
770.801548	0.800466
771.126949	0.810119
771.452303	0.814320
771.777611	0.813705
772.102872	0.812176
772.428087	0.818592
772.753256	0.821497
773.078378	0.822759
773.403453	0.831995
773.728482	0.836139
774.053465	0.830606
774.378401	0.834005
774.703291	0.843407
775.028135	0.841419
775.352932	0.844088
775.677683	0.846130
776.002388	0.847028
776.327046	0.846109
776.651658	0.848988
776.976224	0.852795
777.300743	0.853440
777.625216	0.855537
777.949643	0.857376
778.274024	0.856802
778.598359	0.858632
778.922647	0.857198
779.246889	0.857421
779.571086	0.862276
779.895236	0.864607
780.219339	0.861261
780.543397	0.858454
780.867409	0.857509
781.191374	0.858833
781.515294	0.860624
781.839167	0.858630
782.162995	0.863075
782.486776	0.860063
782.810511	0.860459
783.134201	0.865224
783.457844	0.861666
783.781441	0.865123
784.104993	0.871076
784.428498	0.871668
784.751958	0.866858
785.075372	0.869041
785.398739	0.873535
785.722061	0.869609
786.045337	0.863952
786.368568	0.869781
786.691752	0.872461
787.014891	0.857934
787.337983	0.848970
787.661030	0.841915
787.984031	0.823534
788.306987	0.810471
788.629897	0.813266
788.952760	0.817001
789.275579	0.822573
789.598351	0.836736
789.921078	0.849631
790.243759	0.852283
790.566395	0.856974
790.888984	0.862955
791.211529	0.869419
791.534027	0.872063
791.856480	0.874116
792.178888	0.878997
792.501249	0.881454
792.823566	0.883219
793.145836	0.882662
793.468062	0.884553
793.790241	0.885159
794.112375	0.883382
794.434464	0.878704
794.756507	0.877811
795.078505	0.878465
795.400457	0.872770
795.722364	0.860949
796.044226	0.853187
796.366042	0.853384
796.687812	0.855522
797.009538	0.852905
797.331218	0.855170
797.652852	0.860156
797.974442	0.864862
798.295986	0.864716
798.617484	0.866044
798.938938	0.871728
799.260346	0.875996
799.581709	0.877784
799.903026	0.881060
800.224299	0.880901
800.545526	0.884604
800.866708	0.888998
801.187845	0.893281
801.508936	0.892350
801.829983	0.889598
802.150984	0.892120
802.471940	0.899338
802.792851	0.897544
803.113717	0.898278
803.434538	0.895612
803.755314	0.898727
804.076045	0.900035
804.396731	0.899911
804.717372	0.900285
805.037967	0.902334
805.358518	0.899239
805.679024	0.896882
805.999485	0.897351
806.319901	0.896593
806.640272	0.898654
806.960598	0.896697
807.280879	0.894850
807.601115	0.891819
807.921306	0.895989
808.241453	0.897020
808.561554	0.892969
808.881611	0.894259
809.201623	0.896021
809.521590	0.895874
809.841513	0.897893
810.161390	0.895824
810.481223	0.898726
810.801011	0.901325
811.120755	0.902966
811.440453	0.900928
811.760107	0.901563
812.079716	0.900111
812.399281	0.903404
812.718801	0.906929
813.038276	0.906748
813.357707	0.907116
813.677093	0.904193
813.996434	0.907111
814.315731	0.908582
814.634983	0.909106
814.954191	0.907799
815.273354	0.905390
815.592473	0.901297
815.911547	0.901206
816.230577	0.899461
816.549562	0.897092
816.868502	0.897006
817.187399	0.894204
817.506250	0.888161
817.825058	0.891412
818.143821	0.886060
818.462539	0.880964
818.781213	0.873798
819.099843	0.862064
819.418429	0.846820
819.736970	0.830029
820.055466	0.810450
820.373919	0.784533
820.692327	0.752790
821.010691	0.718038
821.329011	0.641487
821.647286	0.526439
821.965517	0.413162
822.283704	0.370612
822.601847	0.372054
822.919945	0.407936
823.237999	0.441003
823.556010	0.487324
823.873976	0.542610
824.191897	0.593071
824.509775	0.635909
824.827609	0.681110
825.145398	0.703137
825.463144	0.706499
825.780845	0.688891
826.098502	0.670975
826.416116	0.624787
826.733685	0.581145
827.051210	0.573265
827.368692	0.587970
827.686129	0.624044
828.003522	0.676784
828.320872	0.724726
828.638177	0.767593
828.955439	0.800431
829.272656	0.822948
829.589830	0.839011
829.906960	0.855407
830.224046	0.866661
830.541088	0.877697
830.858086	0.881176
831.175041	0.887778
831.491952	0.887605
831.808819	0.883443
832.125642	0.877652
832.442421	0.862850
832.759157	0.841895
833.075849	0.795162
833.392497	0.731842
833.709101	0.690893
834.025662	0.701042
834.342179	0.732407
834.658653	0.771114
834.975083	0.807505
835.291469	0.832687
835.607811	0.854596
835.924110	0.869733
836.240366	0.889232
836.556578	0.901462
836.872746	0.909626
837.188871	0.914425
837.504952	0.919775
837.820990	0.922696
838.136984	0.927370
838.452935	0.930960
838.768842	0.931643
839.084706	0.924686
839.400526	0.899745
839.716303	0.859863
840.032037	0.838064
840.347727	0.841169
840.663373	0.859318
840.978977	0.880632
841.294537	0.903329
841.610054	0.918485
841.925527	0.927173
842.240957	0.933079
842.556344	0.940932
842.871687	0.945362
843.186987	0.950042
843.502244	0.950386
843.817458	0.952271
844.132629	0.955442
844.447756	0.961094
844.762840	0.961112
845.077881	0.959027
845.392879	0.959800
845.707833	0.963140
846.022745	0.964648
846.337613	0.964770
846.652438	0.966119
846.967221	0.964215
847.281960	0.965168
847.596656	0.967859
847.911309	0.966126
848.225919	0.967861
848.540485	0.968859
848.855009	0.968571
849.169490	0.968524
849.483928	0.969068
849.798323	0.969178
850.112675	0.968952
850.426984	0.969913
850.741251	0.970072
851.055474	0.970456
851.369654	0.967397
851.683792	0.970139
851.997887	0.969883
852.311938	0.970768
852.625947	0.969831
852.939914	0.968496
853.253837	0.969917
853.567718	0.970657
853.881555	0.970515
854.195350	0.967973
854.509103	0.969349
854.822812	0.970367
855.136479	0.971265
855.450103	0.970340
855.763685	0.968165
856.077224	0.968145
856.390720	0.970773
856.704173	0.970738
857.017584	0.968813
857.330953	0.966912
857.644278	0.967812
857.957561	0.968253
858.270802	0.969687
858.584000	0.967677
858.897155	0.966419
859.210268	0.967679
859.523339	0.969460
859.836367	0.970338
860.149352	0.970756
860.462295	0.968838
860.775195	0.970212
861.088054	0.969156
861.400869	0.969558
861.713642	0.969608
862.026373	0.970672
862.339062	0.972000
862.651708	0.968111
862.964312	0.968311
863.276873	0.968883
863.589392	0.968227
863.901869	0.967025
864.214303	0.965506
864.526696	0.964408
864.839045	0.963999
865.151353	0.961645
865.463619	0.962517
865.775842	0.962074
866.088023	0.962066
866.400162	0.962387
866.712258	0.962283
867.024313	0.962154
867.336325	0.964226
867.648296	0.963934
867.960224	0.962077
868.272110	0.961439
868.583954	0.963668
868.895755	0.963762
869.207515	0.961821
869.519233	0.959208
869.830909	0.959875
870.142542	0.962893
870.454134	0.962520
870.765684	0.961209
871.077191	0.959134
871.388657	0.959264
871.700081	0.958054
872.011463	0.958941
872.322803	0.958169
872.634101	0.958277
872.945357	0.955247
873.256571	0.953646
873.567744	0.953280
873.878874	0.954325
874.189963	0.951580
874.501010	0.952476
874.812015	0.949375
875.122979	0.951661
875.433900	0.953139
875.744780	0.954474
876.055618	0.951197
876.366415	0.950021
876.677169	0.950570
876.987882	0.951577
877.298554	0.952040
877.609183	0.947886
877.919771	0.945765
878.230317	0.942601
878.540822	0.940406
878.851285	0.935809
879.161707	0.928273
879.472087	0.915720
879.782425	0.899933
880.092722	0.866045
880.402977	0.814915
880.713191	0.754673
881.023363	0.696204
881.333494	0.663075
881.643583	0.634788
881.953631	0.634464
882.263637	0.662992
882.573602	0.702980
882.883526	0.727817
883.193408	0.750933
883.503248	0.772756
883.813048	0.800519
884.122806	0.829976
884.432522	0.852529
884.742197	0.871662
885.051831	0.882437
885.361424	0.892376
885.670975	0.904812
885.980485	0.914988
886.289954	0.919346
886.599382	0.925225
886.908768	0.929226
887.218113	0.936279
887.527417	0.939488
887.836680	0.942761
888.145901	0.944082
888.455082	0.946368
888.764221	0.951794
889.073319	0.953928
889.382376	0.953011
889.691392	0.953963
890.000366	0.953266
890.309300	0.953969
890.618193	0.954135
890.927044	0.951585
891.235855	0.952213
891.544625	0.952777
891.853353	0.952606
892.162041	0.949975
892.470687	0.942818
892.779293	0.940129
893.087858	0.934938
893.396381	0.927857
893.704864	0.914486
894.013306	0.889912
894.321707	0.863622
894.630068	0.849928
894.938387	0.846145
895.246665	0.846323
895.554903	0.859624
895.863100	0.871719
896.171256	0.888788
896.479371	0.907363
896.787446	0.920417
897.095480	0.926692
897.403473	0.929980
897.711425	0.934046
898.019336	0.940494
898.327207	0.944351
898.635038	0.945391
898.942827	0.945623
899.250576	0.948524
899.558284	0.951766
899.865952	0.954264
900.173579	0.955344
900.481165	0.956642
900.788711	0.961354
901.096216	0.961522
901.403681	0.961652
901.711105	0.964500
902.018489	0.963289
902.325832	0.962338
902.633135	0.961732
902.940397	0.955561
903.247619	0.944973
903.554800	0.919140
903.861941	0.879765
904.169041	0.845952
904.476101	0.828821
904.783121	0.829365
905.090100	0.845387
905.397039	0.866278
905.703938	0.887217
906.010796	0.906335
906.317614	0.923815
906.624391	0.935209
906.931129	0.945357
907.237826	0.952043
907.544483	0.960602
907.851099	0.962920
908.157675	0.967949
908.464211	0.970021
908.770707	0.972831
909.077163	0.974095
909.383578	0.974732
909.689954	0.974885
909.996289	0.976449
910.302584	0.978544
910.608839	0.979712
910.915054	0.978716
911.221229	0.978136
911.527363	0.977200
911.833458	0.977380
912.139513	0.977790
912.445527	0.975191
912.751502	0.974273
913.057436	0.972113
913.363331	0.969429
913.669186	0.965847
913.975000	0.961598
914.280775	0.956115
914.586510	0.948961
914.892205	0.936539
915.197859	0.915002
915.503475	0.888326
915.809050	0.869794
916.114585	0.863685
916.420081	0.861594
916.725536	0.859210
917.030952	0.866101
917.336328	0.878436
917.641665	0.893343
917.946961	0.908996
918.252218	0.919940
918.557435	0.928214
918.862612	0.936807
919.167750	0.944003
919.472848	0.947565
919.777906	0.953631
920.082925	0.958194
920.387904	0.961548
920.692843	0.964043
920.997743	0.964183
921.302603	0.967913
921.607423	0.969326
921.912204	0.972074
922.216946	0.972358
922.521647	0.973004
922.826310	0.975535
923.130932	0.977070
923.435516	0.978145
923.740059	0.979612
924.044564	0.978128
924.349028	0.980613
924.653454	0.984113
924.957840	0.984906
925.262186	0.984881
925.566493	0.984241
925.870761	0.984919
926.174989	0.985322
926.479178	0.989279
926.783328	0.987778
927.087438	0.989571
927.391509	0.988754
927.695541	0.989368
927.999533	0.989710
928.303486	0.989524
928.607400	0.991967
928.911275	0.989213
929.215110	0.990648
929.518906	0.990758
929.822663	0.989411
930.126381	0.991613
930.430060	0.990918
930.733699	0.989436
931.037299	0.988718
931.340861	0.991304
931.644383	0.989763
931.947866	0.990095
932.251309	0.990763
932.554714	0.989950
932.858080	0.991265
933.161407	0.990162
933.464694	0.990427
933.767943	0.988756
934.071153	0.992479
934.374323	0.991307
934.677455	0.991938
934.980548	0.991493
935.283602	0.988873
935.586617	0.991020
935.889593	0.990671
936.192530	0.991168
936.495428	0.990712
936.798287	0.990611
937.101108	0.990819
937.403890	0.987964
937.706632	0.989080
938.009336	0.986599
938.312002	0.986485
938.614628	0.984927
938.917216	0.983310
939.219765	0.982683
939.522275	0.983128
939.824747	0.984458
940.127179	0.983763
940.429573	0.984074
940.731929	0.983440
941.034246	0.985023
941.336524	0.985903
941.638763	0.986161
941.940964	0.985817
942.243126	0.986863
942.545250	0.987042
942.847335	0.988087
943.149381	0.988984
943.451389	0.987645
943.753359	0.988301
944.055290	0.991138
944.357182	0.990251
944.659036	0.988023
944.960851	0.990005
945.262628	0.990600
945.564367	0.990604
945.866067	0.990058
946.167729	0.990322
946.469352	0.988541
946.770937	0.989081
947.072484	0.991231
947.373992	0.990246
947.675462	0.990928
947.976893	0.990454
948.278286	0.990471
948.579641	0.991951
948.880958	0.990467
949.182236	0.990473
949.483476	0.991860
949.784678	0.990833
950.085841	0.992208
950.386967	0.990898
950.688054	0.990821
950.989103	0.991194
951.290114	0.988612
951.591087	0.990076
951.892021	0.989178
952.192917	0.989334
952.493776	0.989368
952.794596	0.987999
953.095378	0.988265
953.396122	0.988076
953.696828	0.987279
953.997496	0.989509
954.298126	0.990774
954.598718	0.991150
954.899272	0.992036
955.199788	0.989397
955.500266	0.992837
955.800706	0.993275
956.101108	0.993257
956.401472	0.992875
956.701798	0.993610
957.002087	0.992552
957.302337	0.993403
957.602550	0.995468
957.902724	0.995277
958.202861	0.995347
958.502960	0.996296
958.803022	0.993092
959.103045	0.996297
959.403031	0.995519
959.702979	0.994657
960.002889	0.995573
960.302762	0.994530
960.602596	0.995935
960.902393	0.993981
961.202153	0.996671
961.501875	0.996971
961.801559	0.995556
962.101205	0.996682
962.400814	0.995754
962.700385	0.996469
962.999918	0.995589
963.299414	0.996169
963.598873	0.996615
963.898293	0.995553
964.197677	0.995616
964.497022	0.996868
964.796331	0.997336
965.095601	0.996733
965.394835	0.996293
965.694030	0.997298
965.993189	0.996161
966.292309	0.996493
966.591393	0.997546
966.890439	0.998127
967.189447	0.997448
967.488419	0.998114
967.787353	0.996152
968.086249	0.995989
968.385108	0.997684
968.683930	0.997888
968.982714	0.997642
969.281462	0.997804
969.580172	0.996969
969.878844	0.996315
970.177480	0.997799
970.476078	0.997194
970.774639	0.996065
971.073162	0.996725
971.371649	0.996590
971.670098	0.996145
971.968510	0.996819
972.266885	0.995481
972.565223	0.994989
972.863524	0.997571
973.161788	0.995755
973.460014	0.997017
973.758204	0.996257
974.056356	0.996813
974.354471	0.994426
974.652550	0.995966
974.950591	0.996547
975.248595	0.996098
975.546563	0.996814
975.844493	0.997985
976.142386	0.996049
976.440243	0.997487
976.738062	0.997531
977.035845	0.998359
977.333590	0.997037
977.631299	0.999184
977.928971	0.996611
978.226606	0.995937
978.524204	0.995830
978.821765	0.997937
979.119290	0.996854
979.416777	0.996290
979.714228	0.997280
980.011642	0.996218
980.309020	0.996241
980.606360	0.996615
980.903664	0.998443
981.200931	0.996112
981.498162	0.995457
981.795356	0.995410
982.092513	0.994470
982.389633	0.994072
982.686717	0.991841
982.983764	0.991649
983.280775	0.990869
983.577749	0.990741
983.874686	0.992391
984.171587	0.991405
984.468451	0.994036
984.765279	0.995096
985.062070	0.994092
985.358824	0.995373
985.655543	0.994433
985.952224	0.995635
986.248869	0.996329
986.545478	0.997248
986.842050	0.998602
987.138586	0.994657
987.435086	0.996865
987.731549	0.998020
988.027975	0.997231
988.324366	0.997538
988.620719	0.998971
988.917037	0.995699
989.213318	0.999026
989.509563	0.998680
989.805772	0.997634
990.101944	0.998430
990.398080	0.997551
990.694180	0.997975
990.990244	0.998083
991.286271	0.997225
991.582262	0.997480
991.878217	0.997000
992.174136	0.998995
992.470019	0.997769
992.765865	0.998254
993.061676	0.998287
993.357450	0.999025
993.653188	0.997360
993.948890	0.997141
994.244556	0.996924
994.540186	0.996376
994.835780	0.996431
995.131337	0.998235
995.426859	0.997030
995.722345	0.997749
996.017795	0.997434
996.313208	0.995900
996.608586	0.996407
996.903928	0.996319
997.199234	0.996981
997.494504	0.996290
997.789738	0.996032
998.084936	0.996956
998.380099	0.998146
998.675225	0.997691
998.970316	0.997280
999.265371	0.998065
999.560390	0.997267
999.855373	0.998869
1000.150320	0.998486
1000.445232	0.998561
1000.740108	0.997989
1001.034948	0.997915
1001.329752	0.998047
1001.624521	0.998578
1001.919254	0.998170
1002.213951	0.997347
1002.508613	0.998080
1002.803239	0.999392
1003.097829	0.998286
1003.392384	0.998661
1003.686903	0.998752
1003.981386	0.998435
1004.275834	0.999735
1004.570246	0.999140
1004.864623	0.998717
1005.158964	1.000004
1005.453270	0.998068
1005.747540	0.998478
1006.041775	0.998558
1006.335974	0.998984
1006.630138	0.998667
1006.924266	0.999288
1007.218359	0.998762
1007.512416	0.999674
1007.806438	0.999589
1008.100425	0.998004
1008.394376	0.998023
1008.688292	0.998563
1008.982172	0.999852
1009.276017	0.999039
1009.569827	0.999137
1009.863602	0.998082
1010.157341	1.000362
1010.451045	0.999663
1010.744714	0.998270
1011.038347	0.998200
1011.331945	0.999507
1011.625508	0.997505
1011.919036	0.998876
1012.212528	0.998061
1012.505986	0.997359
1012.799408	0.999125
1013.092795	0.999360
1013.386147	0.998135
1013.679464	0.998790
1013.972745	0.997970
1014.265992	0.996898
1014.559204	0.998495
1014.852380	0.999186
1015.145521	0.998545
1015.438628	0.998995
1015.731699	0.999335
1016.024736	0.998768
1016.317737	0.998274
1016.610703	0.998345
1016.903635	0.999882
1017.196531	0.998366
1017.489393	0.999004
1017.782219	0.998189
1018.075011	0.999157
1018.367768	0.998299
1018.660490	0.999360
1018.953177	0.999360
1019.245829	0.999360
