Dividing Wavelength (nm)	Counts (n)	Blue Motor Position (mm): 0.000000	Red Motor Position (mm): 14.700000	
326.493990	1.001750
326.888308	1.001750
327.282561	1.001750
327.676750	0.999749
328.070874	0.999508
328.464933	1.000160
328.858929	0.999420
329.252859	0.999525
329.646726	1.001260
330.040528	1.000495
330.434265	1.000087
330.827938	1.000340
331.221547	0.999871
331.615091	0.999971
332.008571	1.000020
332.401986	0.999217
332.795338	0.999992
333.188625	0.998476
333.581847	1.000801
333.975006	1.000445
334.368100	0.999767
334.761129	0.999842
335.154095	1.001504
335.546996	0.998104
335.939833	0.992830
336.332606	0.992963
336.725315	0.994703
337.117960	0.995123
337.510540	0.994056
337.903056	0.994841
338.295508	0.993828
338.687896	0.992251
339.080220	0.994165
339.472480	0.993773
339.864676	0.992887
340.256807	0.993424
340.648875	0.994879
341.040879	0.994305
341.432818	0.993190
341.824694	0.994120
342.216506	0.994390
342.608253	0.995067
342.999937	0.992867
343.391557	0.994809
343.783113	0.993182
344.174605	0.995095
344.566033	0.993084
344.957397	0.993500
345.348697	0.992860
345.739934	0.993783
346.131106	0.992533
346.522215	0.994041
346.913260	0.993954
347.304241	0.992819
347.695159	0.993289
348.086012	0.993381
348.476802	0.993172
348.867528	0.994410
349.258191	0.992219
349.648789	0.994665
350.039324	0.994596
350.429796	0.995443
350.820203	0.994310
351.210548	0.994292
351.600828	0.994013
351.991045	0.993218
352.381198	0.992739
352.771288	0.993079
353.161314	0.993444
353.551276	0.994521
353.941175	0.993606
354.331010	0.993606
354.720782	0.993827
355.110490	0.994133
355.500135	0.995204
355.889717	0.993625
356.279235	0.993052
356.668689	0.993300
357.058080	0.993526
357.447408	0.994753
357.836672	0.994856
358.225873	0.995924
358.615010	0.994268
359.004084	0.995457
359.393095	0.993342
359.782043	0.994005
360.170927	0.994469
360.559748	0.994082
360.948505	0.993349
361.337199	0.994403
361.725830	0.993271
362.114398	0.993747
362.502903	0.994466
362.891344	0.994788
363.279722	0.992225
363.668037	0.994259
364.056289	0.992838
364.444478	0.995720
364.832603	0.994041
365.220665	0.992519
365.608665	0.993555
365.996601	0.994121
366.384474	0.993241
366.772284	0.993328
367.160031	0.992734
367.547715	0.992581
367.935336	0.993601
368.322893	0.992940
368.710388	0.993320
369.097820	0.993071
369.485189	0.993056
369.872495	0.993992
370.259738	0.991384
370.646918	0.993694
371.034035	0.994091
371.421090	0.993505
371.808081	0.993522
372.195010	0.994596
372.581875	0.993438
372.968678	0.992720
373.355418	0.993895
373.742096	0.993002
374.128710	0.994623
374.515262	0.992604
374.901751	0.993085
375.288177	0.994069
375.674540	0.993784
376.060841	0.992841
376.447079	0.993996
376.833254	0.994201
377.219367	0.992990
377.605417	0.994783
377.991404	0.993794
378.377329	0.992470
378.763191	0.993056
379.148991	0.994000
379.534727	0.992531
379.920402	0.993481
380.306013	0.993439
380.691563	0.993333
381.077049	0.992279
381.462474	0.993357
381.847835	0.992758
382.233134	0.993051
382.618371	0.992925
383.003545	0.993590
383.388657	0.992858
383.773706	0.994853
384.158693	0.993049
384.543618	0.993561
384.928480	0.993810
385.313280	0.994035
385.698017	0.993898
386.082692	0.994377
386.467305	0.994355
386.851856	0.992692
387.236344	0.992748
387.620770	0.993638
388.005133	0.993794
388.389435	0.993953
388.773674	0.993517
389.157851	0.993179
389.541965	0.993629
389.926018	0.993094
390.310008	0.993980
390.693936	0.992418
391.077802	0.992611
391.461606	0.993055
391.845348	0.992381
392.229027	0.992809
392.612645	0.990709
392.996200	0.990341
393.379694	0.987659
393.763125	0.987901
394.146494	0.985842
394.529801	0.982766
394.913047	0.981704
395.296230	0.977790
395.679351	0.974619
396.062410	0.972146
396.445408	0.968457
396.828343	0.963703
397.211217	0.960220
397.594028	0.957552
397.976778	0.951112
398.359466	0.946691
398.742092	0.940722
399.124656	0.936796
399.507158	0.930415
399.889598	0.925011
400.271977	0.916366
400.654294	0.911454
401.036549	0.904748
401.418742	0.898496
401.800874	0.888200
402.182944	0.880067
402.564952	0.868963
402.946898	0.862966
403.328783	0.854945
403.710606	0.850017
404.092367	0.833233
404.474067	0.827352
404.855705	0.818131
405.237282	0.813646
405.618797	0.798251
406.000250	0.787539
406.381642	0.775509
406.762972	0.768244
407.144240	0.759198
407.525447	0.750245
407.906593	0.738071
408.287677	0.726457
408.668700	0.723198
409.049661	0.709673
409.430560	0.698751
409.811399	0.695370
410.192176	0.674583
410.572891	0.672424
410.953545	0.655923
411.334138	0.657446
411.714669	0.645337
412.095139	0.647355
412.475547	0.628599
412.855894	0.623137
413.236180	0.615003
413.616405	0.613629
413.996568	0.600358
414.376670	0.598784
414.756711	0.597851
415.136691	0.590265
415.516609	0.577673
415.896466	0.569635
416.276262	0.561713
416.655997	0.559516
417.035670	0.538125
417.415283	0.527504
417.794834	0.527884
418.174324	0.530080
418.553753	0.535272
418.933121	0.515244
419.312428	0.506281
419.691674	0.509288
420.070859	0.496017
420.449983	0.501262
420.829045	0.489669
421.208047	0.496561
421.586988	0.488839
421.965867	0.485973
422.344686	0.473385
422.723444	0.484460
423.102141	0.499820
423.480777	0.472702
423.859352	0.492169
424.237866	0.468194
424.616319	0.468963
424.994712	0.458406
425.373044	0.468698
425.751314	0.456406
426.129524	0.471895
426.507673	0.456191
426.885762	0.449507
427.263789	0.454113
427.641756	0.463491
428.019662	0.453588
428.397508	0.452072
428.775292	0.457275
429.153016	0.448457
429.530679	0.455222
429.908282	0.447981
430.285824	0.458194
430.663305	0.436531
431.040726	0.457674
431.418086	0.457515
431.795385	0.448764
432.172624	0.447784
432.549802	0.448644
432.926920	0.447547
433.303977	0.446495
433.680974	0.443577
434.057910	0.442010
434.434786	0.441503
434.811601	0.443619
435.188355	0.426359
435.565050	0.435443
435.941683	0.436925
436.318257	0.421786
436.694770	0.421325
437.071222	0.419911
437.447614	0.424684
437.823946	0.431451
438.200218	0.420266
438.576429	0.429798
438.952580	0.423620
439.328670	0.420001
439.704700	0.426129
440.080670	0.427568
440.456580	0.408695
440.832429	0.416440
441.208218	0.427398
441.583947	0.416573
441.959616	0.416282
442.335224	0.420973
442.710773	0.412305
443.086261	0.410237
443.461689	0.424268
443.837057	0.414170
444.212365	0.403949
444.587612	0.410427
444.962800	0.400835
445.337927	0.402172
445.712995	0.428744
446.088002	0.390776
446.462949	0.401434
446.837837	0.405751
447.212664	0.394586
447.587431	0.386548
447.962139	0.357210
448.336786	0.316340
448.711374	0.326551
449.085901	0.370356
449.460369	0.374754
449.834776	0.378301
450.209124	0.357727
450.583412	0.350364
450.957640	0.343405
451.331808	0.354811
451.705917	0.377720
452.079965	0.382235
452.453954	0.370873
452.827883	0.377413
453.201752	0.372351
453.575562	0.383770
453.949311	0.372540
454.323001	0.378530
454.696632	0.374065
455.070202	0.367020
455.443713	0.358864
455.817164	0.353751
456.190556	0.349375
456.563888	0.346262
456.937160	0.343862
457.310373	0.361048
457.683526	0.360060
458.056619	0.365572
458.429653	0.366216
458.802628	0.369361
459.175542	0.363937
459.548398	0.346533
459.921194	0.339091
460.293930	0.339119
460.666607	0.316877
461.039224	0.305245
461.411782	0.300542
461.784280	0.300120
462.156719	0.304303
462.529099	0.308654
462.901419	0.324719
463.273680	0.329260
463.645882	0.328561
464.018024	0.334443
464.390106	0.327470
464.762130	0.312066
465.134094	0.295110
465.505999	0.264118
465.877845	0.234791
466.249631	0.221822
466.621358	0.229243
466.993026	0.243004
467.364634	0.249278
467.736184	0.257972
468.107674	0.266843
468.479105	0.265894
468.850477	0.272827
469.221790	0.279433
469.593043	0.289731
469.964238	0.294537
470.335373	0.294066
470.706449	0.291779
471.077467	0.292933
471.448425	0.255002
471.819324	0.230762
472.190164	0.229948
472.560945	0.258702
472.931667	0.280935
473.302330	0.284838
473.672934	0.297093
474.043479	0.285246
474.413965	0.286918
474.784393	0.290385
475.154761	0.285642
475.525070	0.282455
475.895321	0.288514
476.265513	0.282428
476.635645	0.277644
477.005719	0.277727
477.375734	0.274304
477.745691	0.267655
478.115588	0.263918
478.485427	0.257855
478.855207	0.244727
479.224928	0.226989
479.594591	0.215231
479.964194	0.218717
480.333739	0.219691
480.703226	0.221283
481.072653	0.219821
481.442022	0.215571
481.811333	0.211737
482.180584	0.215182
482.549777	0.220839
482.918912	0.223940
483.287988	0.223581
483.657005	0.223430
484.025964	0.229576
484.394864	0.227278
484.763706	0.227382
485.132489	0.232532
485.501213	0.233460
485.869879	0.231655
486.238487	0.235068
486.607036	0.232957
486.975527	0.237431
487.343959	0.233067
487.712333	0.232187
488.080648	0.233633
488.448905	0.232653
488.817104	0.234418
489.185244	0.228707
489.553326	0.225495
489.921350	0.215622
490.289315	0.198331
490.657222	0.193321
491.025070	0.194248
491.392861	0.196274
491.760593	0.201984
492.128267	0.207909
492.495883	0.213331
492.863440	0.219593
493.230939	0.226170
493.598380	0.226844
493.965763	0.229446
494.333088	0.231714
494.700354	0.232962
495.067563	0.232060
495.434713	0.235364
495.801805	0.233132
496.168839	0.234668
496.535815	0.236150
496.902733	0.236029
497.269593	0.237513
497.636395	0.235476
498.003139	0.235457
498.369825	0.238770
498.736453	0.234793
499.103023	0.236653
499.469535	0.235979
499.835989	0.236519
500.202385	0.237332
500.568723	0.240358
500.935003	0.235364
501.301226	0.239787
501.667390	0.234281
502.033497	0.232233
502.399546	0.235242
502.765537	0.236743
503.131470	0.235616
503.497345	0.231539
503.863163	0.240437
504.228923	0.233440
504.594625	0.232110
504.960269	0.237487
505.325856	0.232735
505.691385	0.236938
506.056856	0.233821
506.422270	0.233361
506.787625	0.235595
507.152924	0.233262
507.518164	0.233741
507.883347	0.235488
508.248472	0.237090
508.613540	0.232070
508.978550	0.234507
509.343503	0.234968
509.708398	0.232600
510.073236	0.230447
510.438016	0.230151
510.802738	0.231065
511.167403	0.230127
511.532010	0.232175
511.896561	0.227643
512.261053	0.226281
512.625488	0.228549
512.989866	0.228721
513.354186	0.229105
513.718449	0.230967
514.082655	0.227110
514.446803	0.229538
514.810894	0.227113
515.174927	0.229787
515.538904	0.229147
515.902822	0.225887
516.266684	0.228435
516.630488	0.229714
516.994235	0.228444
517.357925	0.227138
517.721558	0.225638
518.085133	0.224897
518.448651	0.225117
518.812112	0.227106
519.175516	0.226939
519.538863	0.224752
519.902152	0.226408
520.265385	0.223161
520.628560	0.224871
520.991678	0.225365
521.354739	0.224089
521.717743	0.225709
522.080690	0.225919
522.443580	0.223104
522.806413	0.224112
523.169189	0.223502
523.531908	0.222483
523.894569	0.225513
524.257174	0.225654
524.619722	0.223578
524.982213	0.224628
525.344647	0.223652
525.707025	0.224535
526.069345	0.222575
526.431608	0.224111
526.793815	0.222202
527.155964	0.226081
527.518057	0.225164
527.880093	0.226066
528.242072	0.224888
528.603995	0.226547
528.965860	0.228186
529.327669	0.227043
529.689421	0.228170
530.051117	0.229080
530.412755	0.226731
530.774337	0.229153
531.135862	0.229254
531.497331	0.228642
531.858743	0.231574
532.220098	0.228392
532.581396	0.230745
532.942638	0.231138
533.303824	0.232302
533.664953	0.231883
534.026025	0.233810
534.387040	0.231699
534.747999	0.231350
535.108902	0.230528
535.469748	0.235424
535.830537	0.233286
536.191270	0.233625
536.551947	0.233132
536.912567	0.233388
537.273131	0.235140
537.633638	0.235320
537.994089	0.235471
538.354483	0.236571
538.714821	0.233543
539.075103	0.233295
539.435328	0.234164
539.795497	0.237936
540.155609	0.234497
540.515665	0.232615
540.875665	0.238704
541.235609	0.236902
541.595496	0.237187
541.955328	0.233429
542.315102	0.236300
542.674821	0.237130
543.034483	0.237217
543.394090	0.236789
543.753640	0.238677
544.113134	0.233828
544.472571	0.237031
544.831953	0.233634
545.191278	0.237928
545.550548	0.237295
545.909761	0.234164
546.268918	0.234925
546.628019	0.233196
546.987064	0.236115
547.346053	0.237885
547.704986	0.235744
548.063863	0.235929
548.422684	0.236494
548.781449	0.238057
549.140158	0.235452
549.498811	0.238519
549.857408	0.241554
550.215949	0.236592
550.574434	0.239638
550.932864	0.237429
551.291237	0.236180
551.649555	0.237679
552.007817	0.237204
552.366022	0.238038
552.724173	0.238199
553.082267	0.238646
553.440305	0.235464
553.798288	0.240079
554.156215	0.236523
554.514086	0.237072
554.871902	0.240327
555.229661	0.239444
555.587365	0.239815
555.945014	0.242430
556.302606	0.239557
556.660143	0.242074
557.017625	0.238240
557.375050	0.240801
557.732421	0.237804
558.089735	0.240013
558.446994	0.239894
558.804197	0.238956
559.161345	0.239029
559.518437	0.242497
559.875474	0.240001
560.232455	0.239810
560.589381	0.240997
560.946251	0.240666
561.303065	0.238461
561.659825	0.239887
562.016528	0.241126
562.373177	0.244425
562.729770	0.241505
563.086307	0.243812
563.442789	0.241265
563.799216	0.244180
564.155587	0.242841
564.511904	0.244019
564.868164	0.244160
565.224370	0.243960
565.580520	0.245785
565.936615	0.245687
566.292654	0.248602
566.648638	0.245765
567.004567	0.246180
567.360441	0.247078
567.716260	0.249193
568.072023	0.246825
568.427732	0.247547
568.783385	0.250248
569.138982	0.248247
569.494525	0.247650
569.850013	0.250871
570.205445	0.249273
570.560823	0.251711
570.916145	0.253554
571.271412	0.251979
571.626625	0.253176
571.981782	0.254093
572.336884	0.254789
572.691931	0.254494
573.046923	0.255796
573.401860	0.256816
573.756743	0.258585
574.111570	0.257387
574.466342	0.257842
574.821059	0.256998
575.175722	0.259796
575.530330	0.259596
575.884882	0.259864
576.239380	0.262052
576.593823	0.262596
576.948211	0.262062
577.302544	0.265315
577.656823	0.264777
578.011047	0.264977
578.365216	0.265399
578.719330	0.267605
579.073389	0.267437
579.427394	0.268537
579.781344	0.269396
580.135239	0.271173
580.489080	0.270395
580.842866	0.273374
581.196597	0.273368
581.550273	0.272172
581.903895	0.273099
582.257463	0.271167
582.610975	0.274504
582.964434	0.273877
583.317837	0.276485
583.671186	0.276629
584.024481	0.276904
584.377721	0.279540
584.730906	0.280136
585.084037	0.279094
585.437113	0.281278
585.790135	0.280354
586.143103	0.283561
586.496016	0.284350
586.848874	0.282155
587.201679	0.282590
587.554428	0.285967
587.907124	0.284624
588.259765	0.285360
588.612352	0.286102
588.964884	0.289639
589.317362	0.289596
589.669786	0.289035
590.022155	0.288431
590.374470	0.287288
590.726731	0.289245
591.078937	0.294194
591.431090	0.289934
591.783188	0.294494
592.135232	0.294881
592.487222	0.294859
592.839157	0.293217
593.191038	0.295288
593.542866	0.297251
593.894639	0.300653
594.246358	0.298922
594.598022	0.298390
594.949633	0.302138
595.301190	0.302562
595.652692	0.301779
596.004141	0.298004
596.355535	0.305940
596.706876	0.306470
597.058162	0.309337
597.409395	0.306438
597.760573	0.304026
598.111698	0.307224
598.462768	0.307422
598.813785	0.308872
599.164748	0.309933
599.515657	0.310652
599.866511	0.313856
600.217312	0.308892
600.568060	0.314617
600.918753	0.310827
601.269392	0.311773
601.619978	0.315044
601.970510	0.312629
602.320988	0.312905
602.671412	0.310677
603.021783	0.312981
603.372100	0.314449
603.722363	0.313909
604.072572	0.314860
604.422728	0.314744
604.772830	0.316896
605.122878	0.316490
605.472872	0.317127
605.822813	0.315286
606.172701	0.317795
606.522534	0.315244
606.872314	0.315101
607.222041	0.316348
607.571714	0.314485
607.921333	0.315531
608.270899	0.315317
608.620411	0.312498
608.969870	0.316038
609.319276	0.316462
609.668627	0.316031
610.017926	0.314085
610.367171	0.313159
610.716362	0.313932
611.065500	0.314095
611.414585	0.312931
611.763616	0.313186
612.112594	0.313920
612.461518	0.313395
612.810389	0.311196
613.159207	0.313379
613.507971	0.315277
613.856682	0.310930
614.205340	0.312525
614.553945	0.309443
614.902496	0.313374
615.250994	0.311170
615.599439	0.312246
615.947830	0.311581
616.296169	0.312664
616.644454	0.311635
616.992686	0.311920
617.340864	0.309806
617.688990	0.313475
618.037063	0.309981
618.385082	0.311959
618.733048	0.308937
619.080961	0.311095
619.428821	0.310568
619.776628	0.310017
620.124382	0.311927
620.472083	0.312457
620.819731	0.312026
621.167326	0.315575
621.514868	0.315531
621.862357	0.319898
622.209793	0.319083
622.557176	0.321302
622.904506	0.322322
623.251783	0.324862
623.599007	0.327034
623.946179	0.326450
624.293297	0.328711
624.640363	0.332463
624.987376	0.332679
625.334336	0.335459
625.681243	0.337405
626.028097	0.338460
626.374899	0.339600
626.721647	0.339500
627.068343	0.342908
627.414987	0.344121
627.761577	0.345905
628.108115	0.344665
628.454600	0.349280
628.801032	0.346180
629.147412	0.349126
629.493739	0.349134
629.840014	0.352298
630.186236	0.350221
630.532405	0.355567
630.878521	0.352787
631.224585	0.354810
631.570597	0.358504
631.916556	0.357161
632.262462	0.357222
632.608316	0.359415
632.954117	0.360139
633.299866	0.360968
633.645562	0.361261
633.991206	0.365775
634.336797	0.368679
634.682336	0.370903
635.027823	0.372024
635.373257	0.373201
635.718639	0.376858
636.063968	0.375806
636.409245	0.381525
636.754470	0.382328
637.099642	0.385011
637.444762	0.388144
637.789829	0.387138
638.134845	0.390755
638.479808	0.391483
638.824719	0.390975
639.169577	0.395555
639.514383	0.394020
639.859137	0.398250
640.203839	0.398195
640.548489	0.398633
640.893086	0.399696
641.237632	0.401908
641.582125	0.400329
641.926566	0.401261
642.270955	0.402065
642.615292	0.402189
642.959576	0.401095
643.303809	0.401620
643.647990	0.401193
643.992118	0.401982
644.336195	0.405372
644.680219	0.404232
645.024192	0.404699
645.368112	0.398649
645.711981	0.397142
646.055797	0.392520
646.399562	0.394664
646.743274	0.387286
647.086935	0.384269
647.430544	0.384693
647.774101	0.383436
648.117606	0.383100
648.461059	0.383774
648.804460	0.385272
649.147810	0.391317
649.491108	0.393085
649.834354	0.394245
650.177548	0.400189
650.520690	0.405073
650.863781	0.406268
651.206820	0.405587
651.549807	0.410470
651.892742	0.414720
652.235626	0.413841
652.578458	0.414760
652.921238	0.421021
653.263967	0.418750
653.606644	0.422529
653.949269	0.422481
654.291843	0.426291
654.634365	0.422852
654.976836	0.425786
655.319255	0.426649
655.661622	0.428079
656.003938	0.427623
656.346203	0.431084
656.688416	0.428858
657.030577	0.432046
657.372687	0.434969
657.714746	0.434935
658.056753	0.431947
658.398708	0.436062
658.740612	0.436588
659.082465	0.433228
659.424266	0.433838
659.766016	0.433376
660.107715	0.435823
660.449362	0.434536
660.790958	0.435240
661.132503	0.435810
661.473996	0.434030
661.815438	0.434047
662.156829	0.434418
662.498168	0.435301
662.839456	0.437056
663.180693	0.434726
663.521879	0.434246
663.863013	0.435696
664.204097	0.433664
664.545129	0.430986
664.886110	0.431475
665.227040	0.428262
665.567918	0.431066
665.908746	0.428861
666.249522	0.428473
666.590248	0.429515
666.930922	0.428049
667.271545	0.427120
667.612118	0.426608
667.952639	0.428251
668.293109	0.427289
668.633528	0.430154
668.973896	0.429544
669.314213	0.430278
669.654480	0.432035
669.994695	0.432167
670.334859	0.433201
670.674973	0.433120
671.015035	0.433518
671.355047	0.433667
671.695008	0.434853
672.034918	0.436458
672.374777	0.435608
672.714585	0.436881
673.054342	0.436206
673.394049	0.436853
673.733705	0.434443
674.073310	0.435961
674.412864	0.438659
674.752368	0.439420
675.091820	0.439201
675.431223	0.443334
675.770574	0.443690
676.109875	0.446981
676.449125	0.446906
676.788324	0.449116
677.127473	0.454322
677.466571	0.454135
677.805619	0.455687
678.144616	0.457234
678.483562	0.458456
678.822458	0.460878
679.161303	0.462396
679.500098	0.462183
679.838842	0.464017
680.177535	0.463520
680.516179	0.462480
680.854771	0.460930
681.193314	0.454963
681.531805	0.445644
681.870247	0.434725
682.208638	0.426877
682.546978	0.425914
682.885268	0.427614
683.223508	0.433914
683.561697	0.437807
683.899836	0.440370
684.237925	0.443566
684.575963	0.446082
684.913951	0.449493
685.251889	0.445355
685.589776	0.447113
685.927614	0.449356
686.265401	0.444145
686.603137	0.445399
686.940824	0.439041
687.278460	0.437344
687.616046	0.436213
687.953582	0.431371
688.291068	0.432818
688.628504	0.428542
688.965889	0.431204
689.303224	0.435206
689.640510	0.438731
689.977745	0.445141
690.314930	0.453201
690.652065	0.457309
690.989150	0.464705
691.326185	0.470972
691.663170	0.476075
692.000105	0.483317
692.336990	0.489913
692.673825	0.493002
693.010610	0.498952
693.347345	0.504903
693.684030	0.505826
694.020665	0.511299
694.357251	0.520283
694.693786	0.520046
695.030272	0.524135
695.366707	0.527290
695.703093	0.530877
696.039429	0.528861
696.375716	0.530415
696.711952	0.532897
697.048139	0.534886
697.384276	0.536386
697.720363	0.535396
698.056400	0.534288
698.392388	0.538988
698.728326	0.542413
699.064214	0.545752
699.400053	0.546519
699.735842	0.550213
700.071581	0.552570
700.407270	0.555165
700.742910	0.557860
701.078501	0.564654
701.414042	0.564677
701.749533	0.567871
702.084974	0.577355
702.420366	0.569502
702.755709	0.576505
703.091002	0.584393
703.426246	0.577908
703.761440	0.583823
704.096584	0.589163
704.431679	0.586024
704.766725	0.588006
705.101721	0.589265
705.436668	0.585996
705.771565	0.592573
706.106413	0.589072
706.441212	0.584735
706.775961	0.583058
707.110661	0.585813
707.445311	0.582219
707.779913	0.579618
708.114465	0.578201
708.448967	0.574914
708.783421	0.566925
709.117825	0.561351
709.452180	0.561450
709.786485	0.555046
710.120742	0.545212
710.454949	0.547896
710.789107	0.539064
711.123216	0.530698
711.457275	0.531962
711.791286	0.522535
712.125247	0.521296
712.459159	0.532549
712.793023	0.525312
713.126837	0.529200
713.460602	0.529746
713.794318	0.539420
714.127985	0.537806
714.461602	0.548078
714.795171	0.551331
715.128691	0.558737
715.462162	0.566063
715.795584	0.571444
716.128957	0.574819
716.462281	0.582015
716.795556	0.585108
717.128782	0.589820
717.461960	0.599717
717.795088	0.597993
718.128167	0.604505
718.461198	0.613399
718.794180	0.613177
719.127113	0.615887
719.459997	0.619812
719.792833	0.625550
720.125619	0.627326
720.458357	0.634021
720.791046	0.632935
721.123686	0.636864
721.456278	0.643203
721.788821	0.640763
722.121315	0.645028
722.453761	0.649075
722.786158	0.646276
723.118506	0.643544
723.450805	0.651026
723.783056	0.647631
724.115259	0.644458
724.447412	0.644031
724.779518	0.645619
725.111574	0.644724
725.443582	0.640346
725.775542	0.642256
726.107453	0.634006
726.439315	0.633687
726.771129	0.631708
727.102895	0.625119
727.434612	0.618843
727.766281	0.615894
728.097901	0.615868
728.429473	0.616108
728.760996	0.613753
729.092471	0.614404
729.423897	0.618240
729.755276	0.617401
730.086606	0.616406
730.417887	0.611888
730.749120	0.602237
731.080305	0.592924
731.411442	0.589664
731.742530	0.594227
732.073570	0.593694
732.404562	0.585849
732.735506	0.586874
733.066401	0.592032
733.397249	0.600478
733.728048	0.612919
734.058798	0.625434
734.389501	0.635214
734.720156	0.645156
735.050762	0.653011
735.381320	0.654169
735.711831	0.664073
736.042293	0.669077
736.372707	0.663953
736.703073	0.668760
737.033391	0.671484
737.363661	0.667951
737.693883	0.663608
738.024056	0.662385
738.354182	0.662818
738.684260	0.651627
739.014290	0.648472
739.344272	0.648445
739.674207	0.641983
740.004093	0.642095
740.333931	0.642000
740.663722	0.641524
740.993464	0.642815
741.323159	0.645968
741.652806	0.651326
741.982405	0.655397
742.311956	0.660648
742.641460	0.662806
742.970915	0.666204
743.300323	0.673641
743.629683	0.681047
743.958996	0.682793
744.288260	0.686570
744.617477	0.693463
744.946647	0.694152
745.275768	0.699418
745.604842	0.700409
745.933869	0.709970
746.262847	0.710216
746.591778	0.703261
746.920662	0.710482
747.249498	0.716206
747.578286	0.707031
747.907027	0.703020
748.235720	0.704382
748.564365	0.698851
748.892963	0.699323
749.221514	0.702502
749.550017	0.707004
749.878473	0.706695
750.206881	0.713011
750.535242	0.714358
750.863555	0.714022
751.191821	0.716192
751.520039	0.719021
751.848210	0.723938
752.176334	0.716679
752.504411	0.714828
752.832440	0.722575
753.160421	0.726267
753.488356	0.725478
753.816243	0.722832
754.144082	0.731463
754.471875	0.734979
754.799620	0.730243
755.127318	0.731363
755.454969	0.731305
755.782572	0.731193
756.110129	0.736620
756.437638	0.738341
756.765100	0.735350
757.092515	0.732282
757.419882	0.731471
757.747203	0.737104
758.074477	0.735552
758.401703	0.733459
758.728882	0.729496
759.056014	0.728123
759.383099	0.726710
759.710138	0.728196
760.037129	0.724118
760.364073	0.717721
760.690970	0.721087
761.017820	0.726196
761.344623	0.722002
761.671379	0.713073
761.998088	0.700757
762.324751	0.679251
762.651366	0.635795
762.977935	0.569611
763.304456	0.517509
763.630931	0.508292
763.957359	0.546362
764.283740	0.591173
764.610074	0.618654
764.936362	0.650127
765.262602	0.676677
765.588796	0.697970
765.914943	0.715976
766.241044	0.733523
766.567097	0.740598
766.893104	0.749991
767.219064	0.756158
767.544978	0.763615
767.870845	0.776395
768.196665	0.779752
768.522438	0.778620
768.848165	0.779129
769.173846	0.788994
769.499479	0.793486
769.825066	0.795799
770.150607	0.801882
770.476101	0.797244
770.801548	0.798785
771.126949	0.809563
771.452303	0.812759
771.777611	0.811592
772.102872	0.812064
772.428087	0.816383
772.753256	0.819760
773.078378	0.822370
773.403453	0.831254
773.728482	0.835122
774.053465	0.829190
774.378401	0.832776
774.703291	0.839924
775.028135	0.840140
775.352932	0.842272
775.677683	0.845080
776.002388	0.846280
776.327046	0.845506
776.651658	0.848548
776.976224	0.851482
777.300743	0.852152
777.625216	0.854688
777.949643	0.855830
778.274024	0.855758
778.598359	0.857275
778.922647	0.855905
779.246889	0.856143
779.571086	0.861153
779.895236	0.863762
780.219339	0.859847
780.543397	0.858241
780.867409	0.855045
781.191374	0.857692
781.515294	0.859162
781.839167	0.858051
782.162995	0.861145
782.486776	0.858528
782.810511	0.859511
783.134201	0.863043
783.457844	0.860214
783.781441	0.863488
784.104993	0.870555
784.428498	0.870060
784.751958	0.865662
785.075372	0.868273
785.398739	0.871913
785.722061	0.868374
786.045337	0.863587
786.368568	0.869317
786.691752	0.871061
787.014891	0.856957
787.337983	0.847684
787.661030	0.841079
787.984031	0.821932
788.306987	0.809139
788.629897	0.810915
788.952760	0.815009
789.275579	0.819597
789.598351	0.834988
789.921078	0.848074
790.243759	0.851079
790.566395	0.856144
790.888984	0.862870
791.211529	0.867579
791.534027	0.871196
791.856480	0.872826
792.178888	0.878695
792.501249	0.880730
792.823566	0.882546
793.145836	0.882140
793.468062	0.884612
793.790241	0.884257
794.112375	0.882216
794.434464	0.878312
794.756507	0.877286
795.078505	0.877195
795.400457	0.870574
795.722364	0.859187
796.044226	0.852303
796.366042	0.851471
796.687812	0.854215
797.009538	0.851643
797.331218	0.853336
797.652852	0.858234
797.974442	0.863782
798.295986	0.863441
798.617484	0.866116
798.938938	0.870522
799.260346	0.875462
799.581709	0.877596
799.903026	0.879983
800.224299	0.878867
800.545526	0.883988
800.866708	0.888339
801.187845	0.891092
801.508936	0.890297
801.829983	0.888581
802.150984	0.891827
802.471940	0.897425
802.792851	0.897222
803.113717	0.897555
803.434538	0.894803
803.755314	0.898332
804.076045	0.899715
804.396731	0.899641
804.717372	0.897882
805.037967	0.899637
805.358518	0.898905
805.679024	0.895778
805.999485	0.895835
806.319901	0.896132
806.640272	0.896774
806.960598	0.895750
807.280879	0.892629
807.601115	0.891965
807.921306	0.894953
808.241453	0.895861
808.561554	0.893221
808.881611	0.893302
809.201623	0.895645
809.521590	0.895867
809.841513	0.896524
810.161390	0.895276
810.481223	0.896777
810.801011	0.900533
811.120755	0.902364
811.440453	0.901239
811.760107	0.900781
812.079716	0.899430
812.399281	0.903643
812.718801	0.905834
813.038276	0.907186
813.357707	0.905717
813.677093	0.903001
813.996434	0.906349
814.315731	0.907585
814.634983	0.909932
814.954191	0.907080
815.273354	0.904168
815.592473	0.901692
815.911547	0.900520
816.230577	0.898358
816.549562	0.895227
816.868502	0.896346
817.187399	0.892238
817.506250	0.887007
817.825058	0.889318
818.143821	0.885700
818.462539	0.880024
818.781213	0.871658
819.099843	0.861319
819.418429	0.844608
819.736970	0.827244
820.055466	0.808571
820.373919	0.783047
820.692327	0.748914
821.010691	0.714291
821.329011	0.636940
821.647286	0.521007
821.965517	0.406709
822.283704	0.364208
822.601847	0.365013
822.919945	0.400643
823.237999	0.434915
823.556010	0.481368
823.873976	0.537802
824.191897	0.589369
824.509775	0.631715
824.827609	0.676906
825.145398	0.699899
825.463144	0.702738
825.780845	0.685721
826.098502	0.667099
826.416116	0.621019
826.733685	0.576830
827.051210	0.568053
827.368692	0.582459
827.686129	0.620082
828.003522	0.673998
828.320872	0.721022
828.638177	0.765131
828.955439	0.798321
829.272656	0.820803
829.589830	0.838138
829.906960	0.853930
830.224046	0.866201
830.541088	0.876239
830.858086	0.880266
831.175041	0.886403
831.491952	0.885516
831.808819	0.883377
832.125642	0.876352
832.442421	0.861152
832.759157	0.838903
833.075849	0.792217
833.392497	0.728071
833.709101	0.687402
834.025662	0.696468
834.342179	0.729686
834.658653	0.767557
834.975083	0.804552
835.291469	0.830850
835.607811	0.853324
835.924110	0.869156
836.240366	0.886318
836.556578	0.899750
836.872746	0.907215
837.188871	0.914343
837.504952	0.919940
837.820990	0.923478
838.136984	0.927122
838.452935	0.929658
838.768842	0.931255
839.084706	0.924470
839.400526	0.898792
839.716303	0.858577
840.032037	0.834770
840.347727	0.838737
840.663373	0.857424
840.978977	0.878731
841.294537	0.901627
841.610054	0.917644
841.925527	0.924626
842.240957	0.931832
842.556344	0.939891
842.871687	0.946236
843.186987	0.950465
843.502244	0.949105
843.817458	0.951949
844.132629	0.956060
844.447756	0.960578
844.762840	0.960709
845.077881	0.959127
845.392879	0.961442
845.707833	0.962819
846.022745	0.963807
846.337613	0.964823
846.652438	0.965871
846.967221	0.963694
847.281960	0.964963
847.596656	0.966419
847.911309	0.965456
848.225919	0.965987
848.540485	0.967687
848.855009	0.968720
849.169490	0.968616
849.483928	0.968170
849.798323	0.968927
850.112675	0.969159
850.426984	0.968993
850.741251	0.969428
851.055474	0.969861
851.369654	0.967504
851.683792	0.969171
851.997887	0.969666
852.311938	0.970283
852.625947	0.969301
852.939914	0.968202
853.253837	0.968696
853.567718	0.970309
853.881555	0.969547
854.195350	0.968472
854.509103	0.969341
854.822812	0.969743
855.136479	0.969615
855.450103	0.968332
855.763685	0.967681
856.077224	0.969262
856.390720	0.969203
856.704173	0.969596
857.017584	0.968780
857.330953	0.965880
857.644278	0.967157
857.957561	0.967806
858.270802	0.968220
858.584000	0.967629
858.897155	0.966978
859.210268	0.966898
859.523339	0.968311
859.836367	0.969063
860.149352	0.970628
860.462295	0.968395
860.775195	0.968957
861.088054	0.969163
861.400869	0.969268
861.713642	0.970362
862.026373	0.969700
862.339062	0.971323
862.651708	0.967788
862.964312	0.966636
863.276873	0.969409
863.589392	0.968052
863.901869	0.966171
864.214303	0.965507
864.526696	0.963794
864.839045	0.963456
865.151353	0.960203
865.463619	0.961760
865.775842	0.961998
866.088023	0.961814
866.400162	0.961503
866.712258	0.963102
867.024313	0.962094
867.336325	0.963229
867.648296	0.962337
867.960224	0.961875
868.272110	0.961323
868.583954	0.963496
868.895755	0.964005
869.207515	0.961570
869.519233	0.959975
869.830909	0.960802
870.142542	0.962768
870.454134	0.961911
870.765684	0.959800
871.077191	0.956281
871.388657	0.959529
871.700081	0.956795
872.011463	0.958806
872.322803	0.957194
872.634101	0.956575
872.945357	0.954446
873.256571	0.953175
873.567744	0.952649
873.878874	0.953004
874.189963	0.951869
874.501010	0.950318
874.812015	0.949570
875.122979	0.950824
875.433900	0.953098
875.744780	0.952552
876.055618	0.950041
876.366415	0.949173
876.677169	0.949315
876.987882	0.950741
877.298554	0.949768
877.609183	0.946492
877.919771	0.944337
878.230317	0.941762
878.540822	0.938561
878.851285	0.934637
879.161707	0.926297
879.472087	0.913653
879.782425	0.897928
880.092722	0.863016
880.402977	0.810372
880.713191	0.749608
881.023363	0.689454
881.333494	0.655049
881.643583	0.627946
881.953631	0.627872
882.263637	0.656449
882.573602	0.695288
882.883526	0.721718
883.193408	0.745310
883.503248	0.768247
883.813048	0.796720
884.122806	0.825426
884.432522	0.848223
884.742197	0.869075
885.051831	0.880019
885.361424	0.889624
885.670975	0.902563
885.980485	0.913885
886.289954	0.919178
886.599382	0.924036
886.908768	0.928080
887.218113	0.934395
887.527417	0.939258
887.836680	0.940507
888.145901	0.943080
888.455082	0.944418
888.764221	0.950398
889.073319	0.952253
889.382376	0.951825
889.691392	0.952199
890.000366	0.952725
890.309300	0.953236
890.618193	0.952833
890.927044	0.951034
891.235855	0.951738
891.544625	0.951663
891.853353	0.950973
892.162041	0.948601
892.470687	0.943334
892.779293	0.937533
893.087858	0.932529
893.396381	0.924876
893.704864	0.912614
894.013306	0.887446
894.321707	0.861478
894.630068	0.846039
894.938387	0.841321
895.246665	0.843063
895.554903	0.854831
895.863100	0.868800
896.171256	0.886301
896.479371	0.905041
896.787446	0.918205
897.095480	0.924053
897.403473	0.928010
897.711425	0.931306
898.019336	0.939927
898.327207	0.942210
898.635038	0.944423
898.942827	0.944018
899.250576	0.949054
899.558284	0.951640
899.865952	0.954137
900.173579	0.955518
900.481165	0.956342
900.788711	0.959605
901.096216	0.960958
901.403681	0.961297
901.711105	0.963582
902.018489	0.962768
902.325832	0.962235
902.633135	0.961616
902.940397	0.955056
903.247619	0.942721
903.554800	0.916122
903.861941	0.876479
904.169041	0.841531
904.476101	0.823537
904.783121	0.824609
905.090100	0.840844
905.397039	0.861428
905.703938	0.884290
906.010796	0.903482
906.317614	0.921730
906.624391	0.933373
906.931129	0.942683
907.237826	0.951374
907.544483	0.957936
907.851099	0.962231
908.157675	0.968138
908.464211	0.970292
908.770707	0.971965
909.077163	0.973754
909.383578	0.974392
909.689954	0.975277
909.996289	0.975615
910.302584	0.978295
910.608839	0.979724
910.915054	0.977254
911.221229	0.977164
911.527363	0.976817
911.833458	0.976663
912.139513	0.975681
912.445527	0.975148
912.751502	0.973869
913.057436	0.972798
913.363331	0.970049
913.669186	0.966436
913.975000	0.959653
914.280775	0.954704
914.586510	0.947570
914.892205	0.935107
915.197859	0.912664
915.503475	0.884633
915.809050	0.865677
916.114585	0.859397
916.420081	0.856708
916.725536	0.853365
917.030952	0.862311
917.336328	0.875034
917.641665	0.890697
917.946961	0.905981
918.252218	0.917687
918.557435	0.925593
918.862612	0.935888
919.167750	0.940886
919.472848	0.946192
919.777906	0.952137
920.082925	0.956936
920.387904	0.961867
920.692843	0.962762
920.997743	0.963497
921.302603	0.967457
921.607423	0.968476
921.912204	0.972066
922.216946	0.971607
922.521647	0.972133
922.826310	0.975009
923.130932	0.976958
923.435516	0.978629
923.740059	0.979102
924.044564	0.977610
924.349028	0.980386
924.653454	0.982949
924.957840	0.984896
925.262186	0.984792
925.566493	0.984192
925.870761	0.984307
926.174989	0.986177
926.479178	0.988966
926.783328	0.987999
927.087438	0.987823
927.391509	0.987898
927.695541	0.988835
927.999533	0.989235
928.303486	0.989019
928.607400	0.990606
928.911275	0.989391
929.215110	0.989929
929.518906	0.990564
929.822663	0.990286
930.126381	0.990967
930.430060	0.990704
930.733699	0.989655
931.037299	0.988651
931.340861	0.990113
931.644383	0.989691
931.947866	0.989175
932.251309	0.990749
932.554714	0.989762
932.858080	0.990557
933.161407	0.989706
933.464694	0.990061
933.767943	0.989040
934.071153	0.990841
934.374323	0.991719
934.677455	0.990386
934.980548	0.991622
935.283602	0.990320
935.586617	0.990885
935.889593	0.989988
936.192530	0.991403
936.495428	0.990572
936.798287	0.990545
937.101108	0.990419
937.403890	0.989698
937.706632	0.989193
938.009336	0.987528
938.312002	0.986019
938.614628	0.983775
938.917216	0.983328
939.219765	0.980473
939.522275	0.982508
939.824747	0.982798
940.127179	0.982929
940.429573	0.984195
940.731929	0.983559
941.034246	0.983659
941.336524	0.985047
941.638763	0.986132
941.940964	0.985385
942.243126	0.987158
942.545250	0.986911
942.847335	0.988718
943.149381	0.987626
943.451389	0.988457
943.753359	0.988011
944.055290	0.990811
944.357182	0.989554
944.659036	0.988300
944.960851	0.990029
945.262628	0.989291
945.564367	0.991058
945.866067	0.989390
946.167729	0.989865
946.469352	0.990094
946.770937	0.988518
947.072484	0.990501
947.373992	0.989820
947.675462	0.990032
947.976893	0.989927
948.278286	0.990339
948.579641	0.992667
948.880958	0.990418
949.182236	0.991128
949.483476	0.990959
949.784678	0.989991
950.085841	0.991803
950.386967	0.991151
950.688054	0.990540
950.989103	0.991381
951.290114	0.989031
951.591087	0.989830
951.892021	0.989593
952.192917	0.988619
952.493776	0.988272
952.794596	0.988182
953.095378	0.986944
953.396122	0.988048
953.696828	0.986802
953.997496	0.989500
954.298126	0.989948
954.598718	0.990421
954.899272	0.990830
955.199788	0.991255
955.500266	0.991592
955.800706	0.993111
956.101108	0.992947
956.401472	0.992572
956.701798	0.993191
957.002087	0.993178
957.302337	0.993657
957.602550	0.994193
957.902724	0.994653
958.202861	0.995419
958.502960	0.994970
958.803022	0.993786
959.103045	0.995737
959.403031	0.996275
959.702979	0.995210
960.002889	0.995930
960.302762	0.995570
960.602596	0.995576
960.902393	0.994248
961.202153	0.995776
961.501875	0.996276
961.801559	0.995103
962.101205	0.995800
962.400814	0.995417
962.700385	0.994862
962.999918	0.995367
963.299414	0.996214
963.598873	0.996682
963.898293	0.996283
964.197677	0.995758
964.497022	0.997704
964.796331	0.997121
965.095601	0.996733
965.394835	0.996496
965.694030	0.996191
965.993189	0.996221
966.292309	0.996061
966.591393	0.997280
966.890439	0.996512
967.189447	0.995764
967.488419	0.997174
967.787353	0.996699
968.086249	0.996590
968.385108	0.996917
968.683930	0.998064
968.982714	0.997250
969.281462	0.996309
969.580172	0.996590
969.878844	0.997742
970.177480	0.995676
970.476078	0.998561
970.774639	0.996126
971.073162	0.997354
971.371649	0.996440
971.670098	0.997314
971.968510	0.996464
972.266885	0.996085
972.565223	0.996277
972.863524	0.996894
973.161788	0.995926
973.460014	0.998043
973.758204	0.994729
974.056356	0.996996
974.354471	0.994001
974.652550	0.996419
974.950591	0.995962
975.248595	0.997137
975.546563	0.997173
975.844493	0.996635
976.142386	0.996600
976.440243	0.997973
976.738062	0.997433
977.035845	0.998298
977.333590	0.996226
977.631299	0.998264
977.928971	0.996012
978.226606	0.996668
978.524204	0.995611
978.821765	0.997881
979.119290	0.995794
979.416777	0.998098
979.714228	0.997444
980.011642	0.995781
980.309020	0.997074
980.606360	0.997150
980.903664	0.997918
981.200931	0.996052
981.498162	0.996310
981.795356	0.995539
982.092513	0.993364
982.389633	0.994676
982.686717	0.991907
982.983764	0.991265
983.280775	0.989733
983.577749	0.990414
983.874686	0.992857
984.171587	0.991758
984.468451	0.994458
984.765279	0.994092
985.062070	0.995053
985.358824	0.995338
985.655543	0.994408
985.952224	0.996343
986.248869	0.995801
986.545478	0.997223
986.842050	0.998143
987.138586	0.995265
987.435086	0.997666
987.731549	0.998804
988.027975	0.997770
988.324366	0.997211
988.620719	0.997715
988.917037	0.996163
989.213318	0.998391
989.509563	0.997606
989.805772	0.997990
990.101944	0.998335
990.398080	0.998483
990.694180	0.998030
990.990244	0.997491
991.286271	0.997897
991.582262	0.998290
991.878217	0.997613
992.174136	0.999161
992.470019	0.998634
992.765865	0.996772
993.061676	0.998314
993.357450	0.998436
993.653188	0.996837
993.948890	0.997500
994.244556	0.998541
994.540186	0.997290
994.835780	0.996420
995.131337	0.997807
995.426859	0.997889
995.722345	0.997228
996.017795	0.995498
996.313208	0.996239
996.608586	0.995806
996.903928	0.996549
997.199234	0.997061
997.494504	0.996115
997.789738	0.996034
998.084936	0.996507
998.380099	0.997582
998.675225	0.996957
998.970316	0.997031
999.265371	0.998236
999.560390	0.998043
999.855373	0.999117
1000.150320	0.998160
1000.445232	0.997614
1000.740108	0.998164
1001.034948	0.998252
1001.329752	0.998184
1001.624521	0.997797
1001.919254	0.998609
1002.213951	0.997204
1002.508613	0.998038
1002.803239	0.999291
1003.097829	0.998689
1003.392384	0.999306
1003.686903	0.998881
1003.981386	0.998631
1004.275834	0.999548
1004.570246	0.997515
1004.864623	0.999243
1005.158964	1.000026
1005.453270	0.999047
1005.747540	0.997750
1006.041775	0.998096
1006.335974	0.998829
1006.630138	0.999075
1006.924266	0.999102
1007.218359	0.998884
1007.512416	0.999993
1007.806438	0.999266
1008.100425	0.999738
1008.394376	0.998797
1008.688292	0.999305
1008.982172	0.999185
1009.276017	0.999676
1009.569827	0.999027
1009.863602	0.999362
1010.157341	0.999583
1010.451045	0.999283
1010.744714	1.000055
1011.038347	0.997992
1011.331945	0.999461
1011.625508	0.997819
1011.919036	0.999092
1012.212528	0.998652
1012.505986	0.997666
1012.799408	0.999143
1013.092795	0.999162
1013.386147	0.999167
1013.679464	0.999174
1013.972745	0.998226
1014.265992	0.997544
1014.559204	0.999299
1014.852380	0.999380
1015.145521	0.997880
1015.438628	0.999323
1015.731699	0.998591
1016.024736	0.997855
1016.317737	0.998681
1016.610703	0.999429
1016.903635	0.999909
1017.196531	0.998303
1017.489393	0.998544
1017.782219	0.998832
1018.075011	0.997976
1018.367768	0.999532
1018.660490	0.999124
1018.953177	0.999124
1019.245829	0.999124
