Dividing Wavelength (nm)	Counts (n)	Blue Motor Position (mm): 0.000000	Red Motor Position (mm): 30.000000	
326.493990	1.000228
326.888308	1.000228
327.282561	1.000228
327.676750	1.000194
328.070874	0.998397
328.464933	0.999179
328.858929	0.999368
329.252859	0.998475
329.646726	0.999177
330.040528	0.999906
330.434265	0.999474
330.827938	1.000044
331.221547	0.999649
331.615091	0.999911
332.008571	0.999906
332.401986	0.999303
332.795338	0.999458
333.188625	0.998021
333.581847	1.001125
333.975006	0.998881
334.368100	1.000217
334.761129	0.999152
335.154095	1.000709
335.546996	0.997448
335.939833	0.994605
336.332606	0.995239
336.725315	0.996368
337.117960	0.996616
337.510540	0.995849
337.903056	0.996176
338.295508	0.994609
338.687896	0.994779
339.080220	0.996451
339.472480	0.995562
339.864676	0.995035
340.256807	0.996331
340.648875	0.996018
341.040879	0.996234
341.432818	0.995461
341.824694	0.995977
342.216506	0.996873
342.608253	0.996436
342.999937	0.994911
343.391557	0.995886
343.783113	0.996085
344.174605	0.995593
344.566033	0.995978
344.957397	0.993876
345.348697	0.995056
345.739934	0.995082
346.131106	0.995265
346.522215	0.995273
346.913260	0.996456
347.304241	0.994808
347.695159	0.995650
348.086012	0.994885
348.476802	0.995659
348.867528	0.994780
349.258191	0.995134
349.648789	0.995543
350.039324	0.995468
350.429796	0.996672
350.820203	0.996199
351.210548	0.994295
351.600828	0.995366
351.991045	0.995674
352.381198	0.993763
352.771288	0.996062
353.161314	0.995055
353.551276	0.996904
353.941175	0.995654
354.331010	0.994707
354.720782	0.996227
355.110490	0.995234
355.500135	0.995556
355.889717	0.995730
356.279235	0.994232
356.668689	0.996072
357.058080	0.995420
357.447408	0.995391
357.836672	0.996252
358.225873	0.996686
358.615010	0.996497
359.004084	0.996013
359.393095	0.995330
359.782043	0.995993
360.170927	0.996320
360.559748	0.996199
360.948505	0.995128
361.337199	0.995001
361.725830	0.996291
362.114398	0.995645
362.502903	0.996331
362.891344	0.996635
363.279722	0.995462
363.668037	0.994649
364.056289	0.996392
364.444478	0.996943
364.832603	0.995460
365.220665	0.996025
365.608665	0.996001
365.996601	0.995218
366.384474	0.995807
366.772284	0.994777
367.160031	0.994112
367.547715	0.994035
367.935336	0.996402
368.322893	0.994629
368.710388	0.993436
369.097820	0.996287
369.485189	0.995211
369.872495	0.995941
370.259738	0.994372
370.646918	0.996557
371.034035	0.996181
371.421090	0.995359
371.808081	0.994585
372.195010	0.995475
372.581875	0.995777
372.968678	0.995367
373.355418	0.995824
373.742096	0.995150
374.128710	0.996648
374.515262	0.995574
374.901751	0.995925
375.288177	0.996117
375.674540	0.996476
376.060841	0.995842
376.447079	0.995876
376.833254	0.996326
377.219367	0.995629
377.605417	0.995644
377.991404	0.996710
378.377329	0.996175
378.763191	0.995794
379.148991	0.996179
379.534727	0.996445
379.920402	0.996580
380.306013	0.997611
380.691563	0.997811
381.077049	0.995566
381.462474	0.995994
381.847835	0.996616
382.233134	0.997019
382.618371	0.996262
383.003545	0.996933
383.388657	0.996518
383.773706	0.997274
384.158693	0.996295
384.543618	0.996886
384.928480	0.998115
385.313280	0.996618
385.698017	0.996813
386.082692	0.997774
386.467305	0.997414
386.851856	0.996820
387.236344	0.997251
387.620770	0.996232
388.005133	0.997217
388.389435	0.998529
388.773674	0.997623
389.157851	0.997635
389.541965	0.997282
389.926018	0.996805
390.310008	0.998548
390.693936	0.996314
391.077802	0.997712
391.461606	0.996805
391.845348	0.996951
392.229027	0.997891
392.612645	0.997673
392.996200	0.998221
393.379694	0.996951
393.763125	0.997894
394.146494	0.997156
394.529801	0.996940
394.913047	0.998213
395.296230	0.997910
395.679351	0.996692
396.062410	0.997119
396.445408	0.998141
396.828343	0.998105
397.211217	0.997146
397.594028	0.997754
397.976778	0.997049
398.359466	0.997397
398.742092	0.997417
399.124656	0.996887
399.507158	0.998050
399.889598	0.997907
400.271977	0.998178
400.654294	0.998351
401.036549	0.998364
401.418742	0.997468
401.800874	0.997504
402.182944	0.997579
402.564952	0.996446
402.946898	0.998539
403.328783	0.998786
403.710606	0.997747
404.092367	0.997741
404.474067	0.998469
404.855705	0.997623
405.237282	0.997551
405.618797	0.997478
406.000250	0.997102
406.381642	0.999282
406.762972	0.997910
407.144240	0.998932
407.525447	0.998191
407.906593	0.997862
408.287677	0.997556
408.668700	0.998967
409.049661	0.996916
409.430560	0.998065
409.811399	0.998617
410.192176	0.997875
410.572891	0.996937
410.953545	0.998367
411.334138	0.996171
411.714669	0.998501
412.095139	0.996923
412.475547	0.998467
412.855894	0.998209
413.236180	0.999001
413.616405	0.997958
413.996568	0.998928
414.376670	0.997905
414.756711	0.997892
415.136691	0.997826
415.516609	0.998517
415.896466	0.998052
416.276262	0.996377
416.655997	0.998579
417.035670	0.996801
417.415283	0.997879
417.794834	0.997292
418.174324	0.998315
418.553753	0.997932
418.933121	0.997959
419.312428	0.997615
419.691674	0.997329
420.070859	0.997924
420.449983	0.997992
420.829045	0.997923
421.208047	0.997995
421.586988	0.998983
421.965867	0.997779
422.344686	0.998754
422.723444	0.998307
423.102141	0.998000
423.480777	0.997592
423.859352	0.997713
424.237866	0.997364
424.616319	0.997802
424.994712	0.998291
425.373044	0.998576
425.751314	0.997961
426.129524	0.997512
426.507673	0.998678
426.885762	0.998984
427.263789	0.998045
427.641756	0.997990
428.019662	0.998620
428.397508	0.997731
428.775292	0.997364
429.153016	0.998009
429.530679	0.998293
429.908282	0.998828
430.285824	0.997784
430.663305	0.997601
431.040726	0.998435
431.418086	0.999052
431.795385	0.998910
432.172624	0.998366
432.549802	0.998898
432.926920	0.998194
433.303977	0.997026
433.680974	0.998421
434.057910	0.997505
434.434786	0.998306
434.811601	0.997847
435.188355	0.996723
435.565050	0.997528
435.941683	0.997730
436.318257	0.998089
436.694770	0.997598
437.071222	0.997939
437.447614	0.998254
437.823946	0.997913
438.200218	0.997277
438.576429	0.998684
438.952580	0.998315
439.328670	0.998123
439.704700	0.998504
440.080670	0.997974
440.456580	0.998474
440.832429	0.997784
441.208218	0.998554
441.583947	0.998428
441.959616	0.997801
442.335224	0.997987
442.710773	0.998004
443.086261	0.997687
443.461689	0.997562
443.837057	0.997365
444.212365	0.998126
444.587612	0.998475
444.962800	0.997127
445.337927	0.997646
445.712995	0.998659
446.088002	0.998459
446.462949	0.998395
446.837837	0.997872
447.212664	0.998193
447.587431	0.998427
447.962139	0.998171
448.336786	0.998027
448.711374	0.997777
449.085901	0.998081
449.460369	0.998684
449.834776	0.997525
450.209124	0.997849
450.583412	0.998047
450.957640	0.998440
451.331808	0.997641
451.705917	0.997620
452.079965	0.997212
452.453954	0.998033
452.827883	0.997245
453.201752	0.998634
453.575562	0.998323
453.949311	0.998167
454.323001	0.997789
454.696632	0.997794
455.070202	0.997282
455.443713	0.997109
455.817164	0.997559
456.190556	0.997596
456.563888	0.997387
456.937160	0.998162
457.310373	0.996785
457.683526	0.996836
458.056619	0.996820
458.429653	0.997507
458.802628	0.996397
459.175542	0.996219
459.548398	0.996898
459.921194	0.996252
460.293930	0.997027
460.666607	0.996358
461.039224	0.995616
461.411782	0.996458
461.784280	0.995421
462.156719	0.996132
462.529099	0.995734
462.901419	0.995037
463.273680	0.994168
463.645882	0.994443
464.018024	0.993089
464.390106	0.993518
464.762130	0.994214
465.134094	0.992285
465.505999	0.991253
465.877845	0.989200
466.249631	0.989143
466.621358	0.988641
466.993026	0.988374
467.364634	0.987991
467.736184	0.986717
468.107674	0.985657
468.479105	0.983875
468.850477	0.984659
469.221790	0.983213
469.593043	0.982657
469.964238	0.981642
470.335373	0.979910
470.706449	0.978649
471.077467	0.977975
471.448425	0.973538
471.819324	0.971185
472.190164	0.970109
472.560945	0.969796
472.931667	0.967885
473.302330	0.965911
473.672934	0.966349
474.043479	0.963200
474.413965	0.960755
474.784393	0.958577
475.154761	0.956308
475.525070	0.953105
475.895321	0.952452
476.265513	0.948792
476.635645	0.946264
477.005719	0.942761
477.375734	0.939391
477.745691	0.936166
478.115588	0.932516
478.485427	0.928658
478.855207	0.923456
479.224928	0.915779
479.594591	0.911323
479.964194	0.908787
480.333739	0.906083
480.703226	0.901548
481.072653	0.897922
481.442022	0.890841
481.811333	0.884699
482.180584	0.882050
482.549777	0.877120
482.918912	0.873489
483.287988	0.868635
483.657005	0.863325
484.025964	0.859425
484.394864	0.853807
484.763706	0.848609
485.132489	0.844829
485.501213	0.838707
485.869879	0.834415
486.238487	0.826533
486.607036	0.821826
486.975527	0.815259
487.343959	0.808945
487.712333	0.801650
488.080648	0.797087
488.448905	0.788972
488.817104	0.783882
489.185244	0.776008
489.553326	0.767601
489.921350	0.756886
490.289315	0.741951
490.657222	0.734438
491.025070	0.727329
491.392861	0.721766
491.760593	0.718257
492.128267	0.713673
492.495883	0.708877
492.863440	0.703774
493.230939	0.698519
493.598380	0.691777
493.965763	0.684737
494.333088	0.679533
494.700354	0.671411
495.067563	0.665088
495.434713	0.658249
495.801805	0.651270
496.168839	0.644039
496.535815	0.636512
496.902733	0.630573
497.269593	0.622439
497.636395	0.615932
498.003139	0.607363
498.369825	0.603059
498.736453	0.592631
499.103023	0.587228
499.469535	0.579465
499.835989	0.573214
500.202385	0.565860
500.568723	0.561023
500.935003	0.552362
501.301226	0.545663
501.667390	0.536863
502.033497	0.528694
502.399546	0.524260
502.765537	0.518032
503.131470	0.509797
503.497345	0.500617
503.863163	0.500906
504.228923	0.488144
504.594625	0.481548
504.960269	0.479163
505.325856	0.469167
505.691385	0.466181
506.056856	0.457799
506.422270	0.451212
506.787625	0.448045
507.152924	0.439506
507.518164	0.434505
507.883347	0.429667
508.248472	0.425767
508.613540	0.416685
508.978550	0.413300
509.343503	0.408159
509.708398	0.401101
510.073236	0.393814
510.438016	0.389025
510.802738	0.384811
511.167403	0.379317
511.532010	0.375886
511.896561	0.368114
512.261053	0.362241
512.625488	0.359315
512.989866	0.354902
513.354186	0.350599
513.718449	0.348028
514.082655	0.341115
514.446803	0.338921
514.810894	0.333221
515.174927	0.331429
515.538904	0.327533
515.902822	0.321029
516.266684	0.319686
516.630488	0.317159
516.994235	0.312924
517.357925	0.308518
517.721558	0.303995
518.085133	0.300238
518.448651	0.297928
518.812112	0.296915
519.175516	0.293367
519.538863	0.288737
519.902152	0.287880
520.265385	0.281999
520.628560	0.281623
520.991678	0.279429
521.354739	0.276160
521.717743	0.275648
522.080690	0.273615
522.443580	0.268865
522.806413	0.267705
523.169189	0.265479
523.531908	0.262554
523.894569	0.264127
524.257174	0.262558
524.619722	0.258544
524.982213	0.258357
525.344647	0.255662
525.707025	0.254990
526.069345	0.251803
526.431608	0.252051
526.793815	0.248939
527.155964	0.251740
527.518057	0.249950
527.880093	0.249700
528.242072	0.247142
528.603995	0.248120
528.965860	0.249105
529.327669	0.247003
529.689421	0.246927
530.051117	0.247249
530.412755	0.243953
530.774337	0.245883
531.135862	0.245290
531.497331	0.244118
531.858743	0.246609
532.220098	0.242813
532.581396	0.244613
532.942638	0.244951
533.303824	0.245268
533.664953	0.244727
534.026025	0.245876
534.387040	0.243320
534.747999	0.243159
535.108902	0.241491
535.469748	0.246241
535.830537	0.243829
536.191270	0.243723
536.551947	0.243364
536.912567	0.242941
537.273131	0.244570
537.633638	0.244306
537.994089	0.244565
538.354483	0.245354
538.714821	0.242278
539.075103	0.241765
539.435328	0.242456
539.795497	0.245932
540.155609	0.242425
540.515665	0.240492
540.875665	0.245830
541.235609	0.244355
541.595496	0.244350
541.955328	0.240578
542.315102	0.243165
542.674821	0.244223
543.034483	0.244008
543.394090	0.243703
543.753640	0.245820
544.113134	0.240368
544.472571	0.243763
544.831953	0.240603
545.191278	0.244482
545.550548	0.243850
545.909761	0.240369
546.268918	0.241065
546.628019	0.239394
546.987064	0.242146
547.346053	0.243888
547.704986	0.241628
548.063863	0.241940
548.422684	0.241969
548.781449	0.244122
549.140158	0.241398
549.498811	0.244318
549.857408	0.247358
550.215949	0.242166
550.574434	0.244985
550.932864	0.243035
551.291237	0.241445
551.649555	0.242939
552.007817	0.242857
552.366022	0.243336
552.724173	0.243686
553.082267	0.243916
553.440305	0.240805
553.798288	0.245267
554.156215	0.241747
554.514086	0.242525
554.871902	0.245600
555.229661	0.244881
555.587365	0.245473
555.945014	0.247755
556.302606	0.244684
556.660143	0.247082
557.017625	0.243437
557.375050	0.246016
557.732421	0.242830
558.089735	0.244811
558.446994	0.244959
558.804197	0.244281
559.161345	0.244001
559.518437	0.247574
559.875474	0.245289
560.232455	0.244481
560.589381	0.245788
560.946251	0.245911
561.303065	0.243365
561.659825	0.244616
562.016528	0.246297
562.373177	0.248985
562.729770	0.246619
563.086307	0.248560
563.442789	0.246648
563.799216	0.248871
564.155587	0.247810
564.511904	0.248968
564.868164	0.249175
565.224370	0.248729
565.580520	0.250601
565.936615	0.250282
566.292654	0.253303
566.648638	0.250250
567.004567	0.251399
567.360441	0.252140
567.716260	0.253879
568.072023	0.251656
568.427732	0.252633
568.783385	0.254572
569.138982	0.253187
569.494525	0.252751
569.850013	0.255520
570.205445	0.253963
570.560823	0.256523
570.916145	0.258356
571.271412	0.256814
571.626625	0.257952
571.981782	0.258614
572.336884	0.259359
572.691931	0.259239
573.046923	0.260144
573.401860	0.261788
573.756743	0.263398
574.111570	0.261931
574.466342	0.262734
574.821059	0.261549
575.175722	0.264506
575.530330	0.264258
575.884882	0.264689
576.239380	0.266754
576.593823	0.267391
576.948211	0.266676
577.302544	0.269945
577.656823	0.269728
578.011047	0.269967
578.365216	0.270201
578.719330	0.272242
579.073389	0.271970
579.427394	0.273284
579.781344	0.274057
580.135239	0.275211
580.489080	0.275029
580.842866	0.277947
581.196597	0.277833
581.550273	0.276794
581.903895	0.277598
582.257463	0.275543
582.610975	0.279260
582.964434	0.278198
583.317837	0.281285
583.671186	0.281435
584.024481	0.281430
584.377721	0.283959
584.730906	0.284520
585.084037	0.283564
585.437113	0.285447
585.790135	0.284713
586.143103	0.288000
586.496016	0.289105
586.848874	0.286952
587.201679	0.287211
587.554428	0.290774
587.907124	0.289508
588.259765	0.289887
588.612352	0.290263
588.964884	0.294141
589.317362	0.293992
589.669786	0.293792
590.022155	0.292502
590.374470	0.291630
590.726731	0.293549
591.078937	0.298254
591.431090	0.294730
591.783188	0.298890
592.135232	0.299506
592.487222	0.299541
592.839157	0.297206
593.191038	0.299905
593.542866	0.301805
593.894639	0.305164
594.246358	0.303558
594.598022	0.302906
594.949633	0.306395
595.301190	0.307002
595.652692	0.306396
596.004141	0.302440
596.355535	0.310645
596.706876	0.310943
597.058162	0.313209
597.409395	0.310739
597.760573	0.308669
598.111698	0.311557
598.462768	0.312217
598.813785	0.313329
599.164748	0.314810
599.515657	0.314921
599.866511	0.318412
600.217312	0.313582
600.568060	0.319083
600.918753	0.315250
601.269392	0.315927
601.619978	0.319351
601.970510	0.317190
602.320988	0.317404
602.671412	0.314903
603.021783	0.317767
603.372100	0.319249
603.722363	0.318622
604.072572	0.319711
604.422728	0.319434
604.772830	0.321439
605.122878	0.320608
605.472872	0.321521
605.822813	0.319883
606.172701	0.322265
606.522534	0.319925
606.872314	0.319733
607.222041	0.320920
607.571714	0.318754
607.921333	0.320097
608.270899	0.320266
608.620411	0.316697
608.969870	0.320182
609.319276	0.320798
609.668627	0.320608
610.017926	0.318976
610.367171	0.317346
610.716362	0.318352
611.065500	0.318897
611.414585	0.317437
611.763616	0.317751
612.112594	0.318601
612.461518	0.318069
612.810389	0.315505
613.159207	0.317887
613.507971	0.319495
613.856682	0.315273
614.205340	0.316966
614.553945	0.313754
614.902496	0.317802
615.250994	0.315492
615.599439	0.316550
615.947830	0.315940
616.296169	0.317057
616.644454	0.316119
616.992686	0.316606
617.340864	0.314159
617.688990	0.317951
618.037063	0.314594
618.385082	0.316583
618.733048	0.313279
619.080961	0.315412
619.428821	0.314735
619.776628	0.314483
620.124382	0.316619
620.472083	0.316950
620.819731	0.316172
621.167326	0.320365
621.514868	0.319864
621.862357	0.323937
622.209793	0.323750
622.557176	0.325595
622.904506	0.327176
623.251783	0.329338
623.599007	0.331400
623.946179	0.331121
624.293297	0.332958
624.640363	0.336825
624.987376	0.337370
625.334336	0.339837
625.681243	0.342013
626.028097	0.342927
626.374899	0.343957
626.721647	0.343743
627.068343	0.347152
627.414987	0.348498
627.761577	0.350468
628.108115	0.348635
628.454600	0.353795
628.801032	0.351376
629.147412	0.353593
629.493739	0.353833
629.840014	0.356973
630.186236	0.354088
630.532405	0.359793
630.878521	0.356923
631.224585	0.359212
631.570597	0.363321
631.916556	0.361157
632.262462	0.361755
632.608316	0.363683
632.954117	0.364342
633.299866	0.365475
633.645562	0.365478
633.991206	0.370180
634.336797	0.373126
634.682336	0.375549
635.027823	0.376792
635.373257	0.377381
635.718639	0.380726
636.063968	0.380094
636.409245	0.386045
636.754470	0.386292
637.099642	0.388745
637.444762	0.392410
637.789829	0.391052
638.134845	0.394436
638.479808	0.395462
638.824719	0.395559
639.169577	0.399186
639.514383	0.398218
639.859137	0.402563
640.203839	0.402237
640.548489	0.403044
640.893086	0.403782
641.237632	0.405469
641.582125	0.404193
641.926566	0.405932
642.270955	0.406027
642.615292	0.406443
642.959576	0.405575
643.303809	0.406122
643.647990	0.405591
643.992118	0.406481
644.336195	0.409742
644.680219	0.407972
645.024192	0.408601
645.368112	0.402344
645.711981	0.401262
646.055797	0.396570
646.399562	0.399006
646.743274	0.391165
647.086935	0.388330
647.430544	0.388881
647.774101	0.387670
648.117606	0.387444
648.461059	0.387835
648.804460	0.390162
649.147810	0.395278
649.491108	0.397325
649.834354	0.398569
650.177548	0.404012
650.520690	0.409051
650.863781	0.410488
651.206820	0.409539
651.549807	0.414511
651.892742	0.418270
652.235626	0.418156
652.578458	0.419149
652.921238	0.424638
653.263967	0.422920
653.606644	0.426665
653.949269	0.426198
654.291843	0.430767
654.634365	0.427058
654.976836	0.430199
655.319255	0.430448
655.661622	0.432098
656.003938	0.431933
656.346203	0.435398
656.688416	0.432944
657.030577	0.436527
657.372687	0.438052
657.714746	0.439188
658.056753	0.436100
658.398708	0.439670
658.740612	0.441076
659.082465	0.437482
659.424266	0.437699
659.766016	0.437184
660.107715	0.440157
660.449362	0.438449
660.790958	0.439340
661.132503	0.439850
661.473996	0.437436
661.815438	0.438269
662.156829	0.438306
662.498168	0.439614
662.839456	0.440755
663.180693	0.438150
663.521879	0.438506
663.863013	0.439640
664.204097	0.437871
664.545129	0.434635
664.886110	0.435128
665.227040	0.432419
665.567918	0.435195
665.908746	0.432924
666.249522	0.432943
666.590248	0.433486
666.930922	0.432157
667.271545	0.430991
667.612118	0.430946
667.952639	0.432478
668.293109	0.431201
668.633528	0.434332
668.973896	0.433982
669.314213	0.434663
669.654480	0.435763
669.994695	0.436588
670.334859	0.437272
670.674973	0.437574
671.015035	0.437471
671.355047	0.437097
671.695008	0.438951
672.034918	0.440018
672.374777	0.439259
672.714585	0.440969
673.054342	0.440839
673.394049	0.440884
673.733705	0.438355
674.073310	0.439611
674.412864	0.442609
674.752368	0.443297
675.091820	0.443143
675.431223	0.448264
675.770574	0.447887
676.109875	0.450660
676.449125	0.450254
676.788324	0.453103
677.127473	0.458271
677.466571	0.458047
677.805619	0.459706
678.144616	0.461194
678.483562	0.462220
678.822458	0.465035
679.161303	0.466272
679.500098	0.466555
679.838842	0.468518
680.177535	0.467577
680.516179	0.465890
680.854771	0.465126
681.193314	0.458466
681.531805	0.449690
681.870247	0.438856
682.208638	0.430663
682.546978	0.430306
682.885268	0.431349
683.223508	0.437906
683.561697	0.441891
683.899836	0.444570
684.237925	0.448151
684.575963	0.450480
684.913951	0.453458
685.251889	0.449309
685.589776	0.450660
685.927614	0.453608
686.265401	0.447968
686.603137	0.449154
686.940824	0.443629
687.278460	0.441739
687.616046	0.440821
687.953582	0.436367
688.291068	0.437775
688.628504	0.433192
688.965889	0.435452
689.303224	0.439019
689.640510	0.443155
689.977745	0.449120
690.314930	0.457152
690.652065	0.461270
690.989150	0.468898
691.326185	0.475586
691.663170	0.479843
692.000105	0.486552
692.336990	0.493876
692.673825	0.496647
693.010610	0.503258
693.347345	0.508920
693.684030	0.509816
694.020665	0.514868
694.357251	0.523848
694.693786	0.523557
695.030272	0.527757
695.366707	0.530525
695.703093	0.534378
696.039429	0.531954
696.375716	0.533663
696.711952	0.536926
697.048139	0.538133
697.384276	0.541101
697.720363	0.538525
698.056400	0.538073
698.392388	0.543472
698.728326	0.546791
699.064214	0.549219
699.400053	0.550332
699.735842	0.553437
700.071581	0.556692
700.407270	0.559551
700.742910	0.562023
701.078501	0.568465
701.414042	0.568344
701.749533	0.572313
702.084974	0.580154
702.420366	0.573020
702.755709	0.581140
703.091002	0.588043
703.426246	0.581329
703.761440	0.587176
704.096584	0.591782
704.431679	0.589036
704.766725	0.590948
705.101721	0.592975
705.436668	0.588985
705.771565	0.595990
706.106413	0.592861
706.441212	0.588225
706.775961	0.586690
707.110661	0.590245
707.445311	0.585921
707.779913	0.583077
708.114465	0.582104
708.448967	0.578436
708.783421	0.570059
709.117825	0.564943
709.452180	0.564837
709.786485	0.558447
710.120742	0.549212
710.454949	0.550834
710.789107	0.543264
711.123216	0.533967
711.457275	0.536111
711.791286	0.527268
712.125247	0.525803
712.459159	0.536233
712.793023	0.529035
713.126837	0.533183
713.460602	0.533754
713.794318	0.543198
714.127985	0.541727
714.461602	0.551886
714.795171	0.555485
715.128691	0.562473
715.462162	0.570412
715.795584	0.575036
716.128957	0.578979
716.462281	0.585212
716.795556	0.589142
717.128782	0.594712
717.461960	0.603021
717.795088	0.601387
718.128167	0.607744
718.461198	0.616515
718.794180	0.617018
719.127113	0.619812
719.459997	0.622920
719.792833	0.629810
720.125619	0.630826
720.458357	0.637059
720.791046	0.636738
721.123686	0.639305
721.456278	0.646922
721.788821	0.643039
722.121315	0.647982
722.453761	0.651888
722.786158	0.650496
723.118506	0.646713
723.450805	0.654672
723.783056	0.650136
724.115259	0.647769
724.447412	0.646596
724.779518	0.649433
725.111574	0.648113
725.443582	0.643127
725.775542	0.645171
726.107453	0.637775
726.439315	0.636868
726.771129	0.635497
727.102895	0.629496
727.434612	0.622402
727.766281	0.619475
728.097901	0.619508
728.429473	0.619631
728.760996	0.617721
729.092471	0.617917
729.423897	0.621424
729.755276	0.620118
730.086606	0.620048
730.417887	0.615334
730.749120	0.606492
731.080305	0.597260
731.411442	0.593309
731.742530	0.597944
732.073570	0.597670
732.404562	0.589421
732.735506	0.590780
733.066401	0.595364
733.397249	0.605461
733.728048	0.616019
734.058798	0.628703
734.389501	0.638547
734.720156	0.648711
735.050762	0.656773
735.381320	0.657848
735.711831	0.667702
736.042293	0.672397
736.372707	0.667411
736.703073	0.671470
737.033391	0.674626
737.363661	0.671250
737.693883	0.666400
738.024056	0.665774
738.354182	0.666256
738.684260	0.655983
739.014290	0.650975
739.344272	0.652253
739.674207	0.645749
740.004093	0.645495
740.333931	0.646022
740.663722	0.645200
740.993464	0.646480
741.323159	0.649701
741.652806	0.654847
741.982405	0.660195
742.311956	0.664424
742.641460	0.666315
742.970915	0.669508
743.300323	0.678529
743.629683	0.684680
743.958996	0.686192
744.288260	0.690598
744.617477	0.696672
744.946647	0.697496
745.275768	0.703335
745.604842	0.701837
745.933869	0.712205
746.262847	0.713335
746.591778	0.707692
746.920662	0.712860
747.249498	0.720124
747.578286	0.710472
747.907027	0.706323
748.235720	0.707295
748.564365	0.702950
748.892963	0.701646
749.221514	0.705569
749.550017	0.710071
749.878473	0.710552
750.206881	0.715778
750.535242	0.717162
750.863555	0.716864
751.191821	0.718637
751.520039	0.721936
751.848210	0.726742
752.176334	0.719720
752.504411	0.718168
752.832440	0.726433
753.160421	0.729643
753.488356	0.728772
753.816243	0.725769
754.144082	0.733963
754.471875	0.737922
754.799620	0.732962
755.127318	0.734243
755.454969	0.735192
755.782572	0.733841
756.110129	0.738935
756.437638	0.742005
756.765100	0.738091
757.092515	0.736162
757.419882	0.734774
757.747203	0.740205
758.074477	0.738988
758.401703	0.736660
758.728882	0.731772
759.056014	0.730358
759.383099	0.729563
759.710138	0.731226
760.037129	0.727852
760.364073	0.721463
760.690970	0.724681
761.017820	0.729921
761.344623	0.724947
761.671379	0.716767
761.998088	0.705330
762.324751	0.681666
762.651366	0.640472
762.977935	0.574779
763.304456	0.522960
763.630931	0.513294
763.957359	0.551758
764.283740	0.595858
764.610074	0.623353
764.936362	0.654404
765.262602	0.680310
765.588796	0.701877
765.914943	0.719921
766.241044	0.736871
766.567097	0.743348
766.893104	0.753098
767.219064	0.760010
767.544978	0.765125
767.870845	0.778999
768.196665	0.782750
768.522438	0.781044
768.848165	0.782699
769.173846	0.791192
769.499479	0.795938
769.825066	0.799390
770.150607	0.805027
770.476101	0.798788
770.801548	0.799743
771.126949	0.811561
771.452303	0.814622
771.777611	0.814976
772.102872	0.813993
772.428087	0.818956
772.753256	0.822794
773.078378	0.825456
773.403453	0.833687
773.728482	0.837979
774.053465	0.830729
774.378401	0.833979
774.703291	0.843091
775.028135	0.843315
775.352932	0.844597
775.677683	0.847488
776.002388	0.847538
776.327046	0.846067
776.651658	0.850283
776.976224	0.854708
777.300743	0.853328
777.625216	0.855094
777.949643	0.859240
778.274024	0.857550
778.598359	0.860175
778.922647	0.857374
779.246889	0.858443
779.571086	0.862871
779.895236	0.865674
780.219339	0.862125
780.543397	0.859658
780.867409	0.858169
781.191374	0.860099
781.515294	0.862046
781.839167	0.860665
782.162995	0.863602
782.486776	0.860476
782.810511	0.862176
783.134201	0.864962
783.457844	0.863101
783.781441	0.865583
784.104993	0.872453
784.428498	0.871271
784.751958	0.867977
785.075372	0.869841
785.398739	0.873746
785.722061	0.869917
786.045337	0.864833
786.368568	0.869902
786.691752	0.872801
787.014891	0.858239
787.337983	0.849594
787.661030	0.842759
787.984031	0.825115
788.306987	0.811788
788.629897	0.814893
788.952760	0.818965
789.275579	0.823137
789.598351	0.837683
789.921078	0.850872
790.243759	0.853098
790.566395	0.856839
790.888984	0.865681
791.211529	0.869769
791.534027	0.872650
791.856480	0.874851
792.178888	0.880464
792.501249	0.883417
792.823566	0.884172
793.145836	0.883568
793.468062	0.886245
793.790241	0.886357
794.112375	0.884321
794.434464	0.879646
794.756507	0.878434
795.078505	0.878829
795.400457	0.874004
795.722364	0.861408
796.044226	0.853432
796.366042	0.854093
796.687812	0.857132
797.009538	0.853380
797.331218	0.856131
797.652852	0.861131
797.974442	0.866107
798.295986	0.865261
798.617484	0.867758
798.938938	0.871723
799.260346	0.877097
799.581709	0.879335
799.903026	0.881347
800.224299	0.881341
800.545526	0.886059
800.866708	0.890999
801.187845	0.893655
801.508936	0.892625
801.829983	0.891860
802.150984	0.893785
802.471940	0.898751
802.792851	0.897331
803.113717	0.899448
803.434538	0.897271
803.755314	0.899917
804.076045	0.901390
804.396731	0.901372
804.717372	0.901837
805.037967	0.903277
805.358518	0.900697
805.679024	0.897494
805.999485	0.897090
806.319901	0.898787
806.640272	0.899900
806.960598	0.897180
807.280879	0.895617
807.601115	0.893460
807.921306	0.897257
808.241453	0.897311
808.561554	0.895096
808.881611	0.894088
809.201623	0.898128
809.521590	0.897993
809.841513	0.898626
810.161390	0.897017
810.481223	0.898611
810.801011	0.902574
811.120755	0.904505
811.440453	0.901169
811.760107	0.901884
812.079716	0.901710
812.399281	0.904109
812.718801	0.907883
813.038276	0.908837
813.357707	0.907340
813.677093	0.905965
813.996434	0.908037
814.315731	0.910374
814.634983	0.911189
814.954191	0.909272
815.273354	0.906532
815.592473	0.902479
815.911547	0.902937
816.230577	0.899267
816.549562	0.897138
816.868502	0.897987
817.187399	0.895442
817.506250	0.889415
817.825058	0.891762
818.143821	0.887391
818.462539	0.883090
818.781213	0.874716
819.099843	0.863925
819.418429	0.848222
819.736970	0.831308
820.055466	0.813691
820.373919	0.786844
820.692327	0.754893
821.010691	0.721073
821.329011	0.645152
821.647286	0.531062
821.965517	0.418342
822.283704	0.376185
822.601847	0.377577
822.919945	0.413323
823.237999	0.446281
823.556010	0.492337
823.873976	0.547338
824.191897	0.597274
824.509775	0.639101
824.827609	0.684052
825.145398	0.706309
825.463144	0.708673
825.780845	0.691926
826.098502	0.673470
826.416116	0.628558
826.733685	0.584943
827.051210	0.577017
827.368692	0.591354
827.686129	0.627531
828.003522	0.680058
828.320872	0.727332
828.638177	0.770639
828.955439	0.803193
829.272656	0.824135
829.589830	0.842319
829.906960	0.856414
830.224046	0.870048
830.541088	0.879071
830.858086	0.883763
831.175041	0.890445
831.491952	0.889170
831.808819	0.884800
832.125642	0.879307
832.442421	0.863780
832.759157	0.843163
833.075849	0.797367
833.392497	0.733991
833.709101	0.694482
834.025662	0.703743
834.342179	0.733922
834.658653	0.773529
834.975083	0.808577
835.291469	0.835790
835.607811	0.857233
835.924110	0.872558
836.240366	0.889677
836.556578	0.902724
836.872746	0.910407
837.188871	0.915788
837.504952	0.920608
837.820990	0.925030
838.136984	0.928033
838.452935	0.930983
838.768842	0.932744
839.084706	0.926157
839.400526	0.900324
839.716303	0.861583
840.032037	0.839054
840.347727	0.842879
840.663373	0.860939
840.978977	0.881020
841.294537	0.903813
841.610054	0.919203
841.925527	0.927321
842.240957	0.934273
842.556344	0.940768
842.871687	0.946372
843.186987	0.950729
843.502244	0.951211
843.817458	0.952362
844.132629	0.956046
844.447756	0.961539
844.762840	0.962117
845.077881	0.961061
845.392879	0.960146
845.707833	0.962914
846.022745	0.965819
846.337613	0.965200
846.652438	0.965581
846.967221	0.965050
847.281960	0.966052
847.596656	0.967680
847.911309	0.965687
848.225919	0.969005
848.540485	0.969307
848.855009	0.969554
849.169490	0.969981
849.483928	0.968807
849.798323	0.970081
850.112675	0.970473
850.426984	0.970540
850.741251	0.970146
851.055474	0.971590
851.369654	0.969310
851.683792	0.969096
851.997887	0.970908
852.311938	0.971771
852.625947	0.970060
852.939914	0.968054
853.253837	0.969564
853.567718	0.970254
853.881555	0.971261
854.195350	0.968498
854.509103	0.969805
854.822812	0.970237
855.136479	0.970965
855.450103	0.970241
855.763685	0.968814
856.077224	0.969542
856.390720	0.971063
856.704173	0.971532
857.017584	0.970518
857.330953	0.967751
857.644278	0.968792
857.957561	0.970267
858.270802	0.968343
858.584000	0.969077
858.897155	0.967051
859.210268	0.967875
859.523339	0.968364
859.836367	0.970451
860.149352	0.971919
860.462295	0.969644
860.775195	0.969937
861.088054	0.969701
861.400869	0.969916
861.713642	0.971077
862.026373	0.971368
862.339062	0.971423
862.651708	0.968194
862.964312	0.968088
863.276873	0.969366
863.589392	0.968502
863.901869	0.967139
864.214303	0.965434
864.526696	0.965328
864.839045	0.964405
865.151353	0.962689
865.463619	0.964080
865.775842	0.963773
866.088023	0.963072
866.400162	0.962901
866.712258	0.963580
867.024313	0.963136
867.336325	0.964744
867.648296	0.965007
867.960224	0.963098
868.272110	0.963306
868.583954	0.964058
868.895755	0.964541
869.207515	0.962530
869.519233	0.959764
869.830909	0.962728
870.142542	0.963051
870.454134	0.963098
870.765684	0.961432
871.077191	0.959143
871.388657	0.960508
871.700081	0.958314
872.011463	0.959490
872.322803	0.959141
872.634101	0.957977
872.945357	0.955982
873.256571	0.954713
873.567744	0.954543
873.878874	0.953781
874.189963	0.953171
874.501010	0.952943
874.812015	0.951344
875.122979	0.952094
875.433900	0.954003
875.744780	0.954339
876.055618	0.952061
876.366415	0.950864
876.677169	0.951060
876.987882	0.952814
877.298554	0.952754
877.609183	0.948775
877.919771	0.945982
878.230317	0.944234
878.540822	0.942514
878.851285	0.937024
879.161707	0.928670
879.472087	0.918140
879.782425	0.901821
880.092722	0.867772
880.402977	0.818123
880.713191	0.758549
881.023363	0.702366
881.333494	0.668496
881.643583	0.640446
881.953631	0.639777
882.263637	0.669195
882.573602	0.707986
882.883526	0.733271
883.193408	0.755836
883.503248	0.776763
883.813048	0.803128
884.122806	0.832858
884.432522	0.856141
884.742197	0.874977
885.051831	0.885464
885.361424	0.894277
885.670975	0.906422
885.980485	0.916117
886.289954	0.922017
886.599382	0.927260
886.908768	0.931149
887.218113	0.935911
887.527417	0.940563
887.836680	0.943510
888.145901	0.945094
888.455082	0.948232
888.764221	0.952325
889.073319	0.954150
889.382376	0.954810
889.691392	0.954324
890.000366	0.953548
890.309300	0.955648
890.618193	0.953402
890.927044	0.953406
891.235855	0.953461
891.544625	0.952461
891.853353	0.952980
892.162041	0.950099
892.470687	0.945132
892.779293	0.939738
893.087858	0.935873
893.396381	0.928616
893.704864	0.916229
894.013306	0.892560
894.321707	0.866967
894.630068	0.852250
894.938387	0.848657
895.246665	0.848538
895.554903	0.861551
895.863100	0.873897
896.171256	0.890749
896.479371	0.909638
896.787446	0.922376
897.095480	0.927687
897.403473	0.930831
897.711425	0.935143
898.019336	0.942292
898.327207	0.945835
898.635038	0.946941
898.942827	0.947950
899.250576	0.949904
899.558284	0.953584
899.865952	0.955155
900.173579	0.957349
900.481165	0.954856
900.788711	0.960712
901.096216	0.962810
901.403681	0.962328
901.711105	0.963839
902.018489	0.963650
902.325832	0.963069
902.633135	0.962214
902.940397	0.956774
903.247619	0.945713
903.554800	0.920613
903.861941	0.882527
904.169041	0.849330
904.476101	0.832481
904.783121	0.833400
905.090100	0.849198
905.397039	0.868635
905.703938	0.890481
906.010796	0.909085
906.317614	0.925377
906.624391	0.936673
906.931129	0.945714
907.237826	0.953256
907.544483	0.961440
907.851099	0.963515
908.157675	0.970184
908.464211	0.970684
908.770707	0.974181
909.077163	0.975252
909.383578	0.975543
909.689954	0.975787
909.996289	0.976377
910.302584	0.979145
910.608839	0.979981
910.915054	0.978980
911.221229	0.979229
911.527363	0.977540
911.833458	0.978124
912.139513	0.977409
912.445527	0.977065
912.751502	0.974657
913.057436	0.973795
913.363331	0.971507
913.669186	0.967316
913.975000	0.962051
914.280775	0.958302
914.586510	0.951197
914.892205	0.938396
915.197859	0.917011
915.503475	0.891045
915.809050	0.872358
916.114585	0.868128
916.420081	0.866093
916.725536	0.862576
917.030952	0.869102
917.336328	0.881333
917.641665	0.896364
917.946961	0.912249
918.252218	0.922807
918.557435	0.931709
918.862612	0.938498
919.167750	0.944537
919.472848	0.949335
919.777906	0.954218
920.082925	0.959962
920.387904	0.962832
920.692843	0.965165
920.997743	0.965701
921.302603	0.967968
921.607423	0.970393
921.912204	0.973597
922.216946	0.973119
922.521647	0.973491
922.826310	0.975958
923.130932	0.978533
923.435516	0.979435
923.740059	0.980545
924.044564	0.979262
924.349028	0.981509
924.653454	0.982741
924.957840	0.985193
925.262186	0.984097
925.566493	0.983137
925.870761	0.985655
926.174989	0.987241
926.479178	0.988897
926.783328	0.988591
927.087438	0.988670
927.391509	0.987319
927.695541	0.990548
927.999533	0.989423
928.303486	0.990434
928.607400	0.992224
928.911275	0.989481
929.215110	0.990872
929.518906	0.991353
929.822663	0.990564
930.126381	0.991095
930.430060	0.990444
930.733699	0.990446
931.037299	0.990599
931.340861	0.991052
931.644383	0.990149
931.947866	0.989930
932.251309	0.990261
932.554714	0.990329
932.858080	0.990717
933.161407	0.989532
933.464694	0.990804
933.767943	0.990587
934.071153	0.990573
934.374323	0.991711
934.677455	0.992003
934.980548	0.991836
935.283602	0.991571
935.586617	0.991942
935.889593	0.990979
936.192530	0.990918
936.495428	0.992016
936.798287	0.990577
937.101108	0.989852
937.403890	0.989759
937.706632	0.988225
938.009336	0.987025
938.312002	0.986056
938.614628	0.985337
938.917216	0.984375
939.219765	0.983099
939.522275	0.983832
939.824747	0.984328
940.127179	0.983639
940.429573	0.985617
940.731929	0.984307
941.034246	0.985398
941.336524	0.986125
941.638763	0.987440
941.940964	0.986721
942.243126	0.987190
942.545250	0.987243
942.847335	0.989364
943.149381	0.988236
943.451389	0.988717
943.753359	0.989064
944.055290	0.991752
944.357182	0.990411
944.659036	0.989390
944.960851	0.989733
945.262628	0.989783
945.564367	0.990950
945.866067	0.990328
946.167729	0.990330
946.469352	0.990213
946.770937	0.988680
947.072484	0.991123
947.373992	0.990273
947.675462	0.991165
947.976893	0.989300
948.278286	0.990906
948.579641	0.991526
948.880958	0.990683
949.182236	0.992545
949.483476	0.991029
949.784678	0.991805
950.085841	0.991343
950.386967	0.991872
950.688054	0.992132
950.989103	0.991215
951.290114	0.989910
951.591087	0.990731
951.892021	0.990312
952.192917	0.989406
952.493776	0.989147
952.794596	0.988759
953.095378	0.989148
953.396122	0.988031
953.696828	0.987197
953.997496	0.989531
954.298126	0.991351
954.598718	0.991300
954.899272	0.991340
955.199788	0.989958
955.500266	0.991413
955.800706	0.993740
956.101108	0.994446
956.401472	0.994359
956.701798	0.994522
957.002087	0.993654
957.302337	0.993035
957.602550	0.994787
957.902724	0.995218
958.202861	0.995706
958.502960	0.996240
958.803022	0.993303
959.103045	0.995944
959.403031	0.995483
959.702979	0.996001
960.002889	0.995280
960.302762	0.995565
960.602596	0.996702
960.902393	0.995058
961.202153	0.997183
961.501875	0.997510
961.801559	0.995795
962.101205	0.996739
962.400814	0.996543
962.700385	0.997341
962.999918	0.996228
963.299414	0.997117
963.598873	0.995846
963.898293	0.995790
964.197677	0.995801
964.497022	0.996257
964.796331	0.997697
965.095601	0.996861
965.394835	0.996236
965.694030	0.997493
965.993189	0.996294
966.292309	0.995893
966.591393	0.997067
966.890439	0.996554
967.189447	0.996718
967.488419	0.997128
967.787353	0.996518
968.086249	0.996165
968.385108	0.997338
968.683930	0.997316
968.982714	0.996620
969.281462	0.996840
969.580172	0.996848
969.878844	0.997249
970.177480	0.996815
970.476078	0.997414
970.774639	0.996342
971.073162	0.997503
971.371649	0.996115
971.670098	0.996504
971.968510	0.997944
972.266885	0.996008
972.565223	0.996413
972.863524	0.996277
973.161788	0.996231
973.460014	0.997577
973.758204	0.996213
974.056356	0.995942
974.354471	0.995093
974.652550	0.995429
974.950591	0.996678
975.248595	0.996733
975.546563	0.996775
975.844493	0.997797
976.142386	0.996860
976.440243	0.996991
976.738062	0.996260
977.035845	0.997746
977.333590	0.998030
977.631299	0.997898
977.928971	0.996215
978.226606	0.997206
978.524204	0.995583
978.821765	0.997416
979.119290	0.996544
979.416777	0.996814
979.714228	0.996496
980.011642	0.995427
980.309020	0.998286
980.606360	0.997634
980.903664	0.997754
981.200931	0.996380
981.498162	0.995573
981.795356	0.995680
982.092513	0.993723
982.389633	0.994677
982.686717	0.991410
982.983764	0.991187
983.280775	0.990206
983.577749	0.991211
983.874686	0.992284
984.171587	0.991245
984.468451	0.993645
984.765279	0.995134
985.062070	0.994874
985.358824	0.994104
985.655543	0.995121
985.952224	0.996764
986.248869	0.996791
986.545478	0.997458
986.842050	0.998378
987.138586	0.995621
987.435086	0.996618
987.731549	0.998360
988.027975	0.997041
988.324366	0.997954
988.620719	0.997333
988.917037	0.995320
989.213318	0.997798
989.509563	0.998059
989.805772	0.998422
990.101944	0.998139
990.398080	0.997193
990.694180	0.998878
990.990244	0.996753
991.286271	0.998564
991.582262	0.998335
991.878217	0.997615
992.174136	0.998818
992.470019	0.999008
992.765865	0.998386
993.061676	0.997185
993.357450	0.997430
993.653188	0.996449
993.948890	0.996574
994.244556	0.997897
994.540186	0.997697
994.835780	0.996801
995.131337	0.997917
995.426859	0.996907
995.722345	0.997572
996.017795	0.996632
996.313208	0.996495
996.608586	0.995597
996.903928	0.996958
997.199234	0.995841
997.494504	0.996183
997.789738	0.996584
998.084936	0.996127
998.380099	0.998714
998.675225	0.997303
998.970316	0.997915
999.265371	0.998301
999.560390	0.998057
999.855373	0.998018
1000.150320	0.997631
1000.445232	0.998000
1000.740108	0.996995
1001.034948	0.997804
1001.329752	0.997822
1001.624521	0.999497
1001.919254	0.997460
1002.213951	0.997216
1002.508613	0.997221
1002.803239	0.998644
1003.097829	0.997782
1003.392384	0.999417
1003.686903	0.998545
1003.981386	0.998186
1004.275834	0.998650
1004.570246	0.998867
1004.864623	0.999108
1005.158964	0.998864
1005.453270	0.998379
1005.747540	0.997812
1006.041775	0.998082
1006.335974	0.999138
1006.630138	0.998216
1006.924266	0.999229
1007.218359	1.000874
1007.512416	0.999422
1007.806438	0.998954
1008.100425	0.999343
1008.394376	0.997981
1008.688292	0.997846
1008.982172	1.001258
1009.276017	0.998146
1009.569827	0.998254
1009.863602	0.997163
1010.157341	0.999016
1010.451045	0.999103
1010.744714	0.999231
1011.038347	1.000270
1011.331945	0.998834
1011.625508	0.997385
1011.919036	0.998474
1012.212528	0.999230
1012.505986	0.997801
1012.799408	0.998422
1013.092795	1.000320
1013.386147	0.998798
1013.679464	0.998963
1013.972745	0.998385
1014.265992	0.998166
1014.559204	0.999856
1014.852380	1.000065
1015.145521	0.999086
1015.438628	0.998142
1015.731699	0.999231
1016.024736	0.998941
1016.317737	0.998351
1016.610703	0.998325
1016.903635	0.999305
1017.196531	0.997045
1017.489393	0.999432
1017.782219	0.999139
1018.075011	0.999150
1018.367768	0.998345
1018.660490	0.999588
1018.953177	0.999588
1019.245829	0.999588
