Dividing Wavelength (nm)	Counts (n)	Blue Motor Position (mm): 0.000000	Red Motor Position (mm): 14.500000	
326.493990	1.000970
326.888308	1.000970
327.282561	1.000970
327.676750	1.001155
328.070874	0.999015
328.464933	1.000185
328.858929	1.000475
329.252859	1.000595
329.646726	0.999302
330.040528	1.000850
330.434265	0.999346
330.827938	1.001493
331.221547	0.999813
331.615091	1.000162
332.008571	1.000380
332.401986	1.000812
332.795338	1.000241
333.188625	0.998180
333.581847	1.001013
333.975006	0.999778
334.368100	0.999331
334.761129	0.998952
335.154095	1.001172
335.546996	0.998759
335.939833	0.992681
336.332606	0.994004
336.725315	0.993972
337.117960	0.995472
337.510540	0.992433
337.903056	0.994856
338.295508	0.993412
338.687896	0.995143
339.080220	0.993798
339.472480	0.993255
339.864676	0.994355
340.256807	0.994295
340.648875	0.995371
341.040879	0.994656
341.432818	0.994214
341.824694	0.994522
342.216506	0.994313
342.608253	0.993459
342.999937	0.994326
343.391557	0.994814
343.783113	0.994339
344.174605	0.994560
344.566033	0.994113
344.957397	0.993484
345.348697	0.994271
345.739934	0.993680
346.131106	0.993246
346.522215	0.993871
346.913260	0.993823
347.304241	0.993826
347.695159	0.993939
348.086012	0.993245
348.476802	0.994743
348.867528	0.993887
349.258191	0.991340
349.648789	0.995460
350.039324	0.993219
350.429796	0.995241
350.820203	0.993959
351.210548	0.993572
351.600828	0.993981
351.991045	0.993613
352.381198	0.993565
352.771288	0.993517
353.161314	0.993780
353.551276	0.994608
353.941175	0.993446
354.331010	0.993904
354.720782	0.993391
355.110490	0.994026
355.500135	0.994218
355.889717	0.993700
356.279235	0.993140
356.668689	0.994827
357.058080	0.993198
357.447408	0.994432
357.836672	0.994107
358.225873	0.993732
358.615010	0.993875
359.004084	0.995878
359.393095	0.993688
359.782043	0.994616
360.170927	0.993662
360.559748	0.995308
360.948505	0.993083
361.337199	0.994839
361.725830	0.993432
362.114398	0.993547
362.502903	0.994529
362.891344	0.994138
363.279722	0.993758
363.668037	0.993961
364.056289	0.994111
364.444478	0.994990
364.832603	0.993640
365.220665	0.993127
365.608665	0.993404
365.996601	0.994061
366.384474	0.993892
366.772284	0.993359
367.160031	0.992239
367.547715	0.992577
367.935336	0.993634
368.322893	0.993677
368.710388	0.993937
369.097820	0.993465
369.485189	0.993297
369.872495	0.992778
370.259738	0.992333
370.646918	0.995151
371.034035	0.993754
371.421090	0.993291
371.808081	0.993649
372.195010	0.994534
372.581875	0.994349
372.968678	0.993874
373.355418	0.993520
373.742096	0.992832
374.128710	0.995093
374.515262	0.992306
374.901751	0.993878
375.288177	0.993673
375.674540	0.994119
376.060841	0.992490
376.447079	0.994174
376.833254	0.993553
377.219367	0.993462
377.605417	0.993214
377.991404	0.994111
378.377329	0.993603
378.763191	0.992754
379.148991	0.994045
379.534727	0.994275
379.920402	0.994146
380.306013	0.993237
380.691563	0.994518
381.077049	0.993102
381.462474	0.992971
381.847835	0.993238
382.233134	0.992812
382.618371	0.993388
383.003545	0.993055
383.388657	0.993010
383.773706	0.994924
384.158693	0.993240
384.543618	0.994330
384.928480	0.994873
385.313280	0.993384
385.698017	0.993911
386.082692	0.993483
386.467305	0.993543
386.851856	0.992879
387.236344	0.993261
387.620770	0.992324
388.005133	0.993034
388.389435	0.994593
388.773674	0.993059
389.157851	0.993782
389.541965	0.993621
389.926018	0.992321
390.310008	0.993606
390.693936	0.992350
391.077802	0.992352
391.461606	0.992223
391.845348	0.991171
392.229027	0.991126
392.612645	0.988961
392.996200	0.988809
393.379694	0.985745
393.763125	0.983662
394.146494	0.982756
394.529801	0.978601
394.913047	0.976330
395.296230	0.972225
395.679351	0.968934
396.062410	0.964782
396.445408	0.961763
396.828343	0.956553
397.211217	0.952137
397.594028	0.949438
397.976778	0.941861
398.359466	0.937337
398.742092	0.929801
399.124656	0.926350
399.507158	0.918647
399.889598	0.911858
400.271977	0.904362
400.654294	0.898074
401.036549	0.890737
401.418742	0.884656
401.800874	0.872616
402.182944	0.864009
402.564952	0.852878
402.946898	0.846924
403.328783	0.838307
403.710606	0.832903
404.092367	0.814668
404.474067	0.808657
404.855705	0.800000
405.237282	0.796229
405.618797	0.780357
406.000250	0.768436
406.381642	0.756704
406.762972	0.749581
407.144240	0.739896
407.525447	0.732263
407.906593	0.718948
408.287677	0.707607
408.668700	0.704778
409.049661	0.691638
409.430560	0.681821
409.811399	0.678641
410.192176	0.657610
410.572891	0.655419
410.953545	0.638941
411.334138	0.641762
411.714669	0.630551
412.095139	0.632635
412.475547	0.613685
412.855894	0.609159
413.236180	0.602237
413.616405	0.600944
413.996568	0.587808
414.376670	0.587173
414.756711	0.587482
415.136691	0.579536
415.516609	0.567648
415.896466	0.560727
416.276262	0.552784
416.655997	0.551254
417.035670	0.529689
417.415283	0.519303
417.794834	0.520750
418.174324	0.522980
418.553753	0.529034
418.933121	0.509223
419.312428	0.500762
419.691674	0.504130
420.070859	0.491986
420.449983	0.497361
420.829045	0.485612
421.208047	0.493202
421.586988	0.484924
421.965867	0.482582
422.344686	0.470320
422.723444	0.482198
423.102141	0.497688
423.480777	0.470502
423.859352	0.489964
424.237866	0.466401
424.616319	0.467134
424.994712	0.457965
425.373044	0.467704
425.751314	0.455821
426.129524	0.471457
426.507673	0.455408
426.885762	0.448756
427.263789	0.453748
427.641756	0.463229
428.019662	0.453484
428.397508	0.452217
428.775292	0.456723
429.153016	0.448366
429.530679	0.455022
429.908282	0.447630
430.285824	0.457652
430.663305	0.435769
431.040726	0.457447
431.418086	0.457588
431.795385	0.448755
432.172624	0.447526
432.549802	0.448669
432.926920	0.447510
433.303977	0.446470
433.680974	0.443591
434.057910	0.442287
434.434786	0.441805
434.811601	0.443869
435.188355	0.426183
435.565050	0.435615
435.941683	0.437367
436.318257	0.421399
436.694770	0.421660
437.071222	0.420026
437.447614	0.424558
437.823946	0.430914
438.200218	0.420454
438.576429	0.430233
438.952580	0.423212
439.328670	0.419732
439.704700	0.426598
440.080670	0.427351
440.456580	0.408592
440.832429	0.416513
441.208218	0.427627
441.583947	0.416789
441.959616	0.416268
442.335224	0.421039
442.710773	0.412364
443.086261	0.410148
443.461689	0.424048
443.837057	0.414208
444.212365	0.404097
444.587612	0.410217
444.962800	0.400467
445.337927	0.402462
445.712995	0.428700
446.088002	0.390833
446.462949	0.401033
446.837837	0.405649
447.212664	0.395095
447.587431	0.386676
447.962139	0.356982
448.336786	0.316257
448.711374	0.326746
449.085901	0.370526
449.460369	0.374875
449.834776	0.377714
450.209124	0.357452
450.583412	0.350712
450.957640	0.343475
451.331808	0.354730
451.705917	0.378030
452.079965	0.382677
452.453954	0.370886
452.827883	0.377279
453.201752	0.372731
453.575562	0.383661
453.949311	0.372090
454.323001	0.378187
454.696632	0.374072
455.070202	0.366792
455.443713	0.358782
455.817164	0.353584
456.190556	0.349602
456.563888	0.346120
456.937160	0.343805
457.310373	0.360912
457.683526	0.359961
458.056619	0.365714
458.429653	0.366369
458.802628	0.369486
459.175542	0.363821
459.548398	0.346602
459.921194	0.339050
460.293930	0.339089
460.666607	0.316852
461.039224	0.304702
461.411782	0.300507
461.784280	0.299881
462.156719	0.304278
462.529099	0.309021
462.901419	0.324534
463.273680	0.328932
463.645882	0.328353
464.018024	0.334369
464.390106	0.327336
464.762130	0.311797
465.134094	0.294837
465.505999	0.264479
465.877845	0.235081
466.249631	0.221880
466.621358	0.229375
466.993026	0.243387
467.364634	0.248970
467.736184	0.258015
468.107674	0.266742
468.479105	0.266067
468.850477	0.272572
469.221790	0.279340
469.593043	0.289718
469.964238	0.294358
470.335373	0.294199
470.706449	0.291810
471.077467	0.292741
471.448425	0.255047
471.819324	0.230693
472.190164	0.229845
472.560945	0.258664
472.931667	0.281019
473.302330	0.284428
473.672934	0.297154
474.043479	0.285255
474.413965	0.286575
474.784393	0.290253
475.154761	0.285608
475.525070	0.282291
475.895321	0.288200
476.265513	0.282190
476.635645	0.277712
477.005719	0.277717
477.375734	0.274444
477.745691	0.267655
478.115588	0.264172
478.485427	0.257853
478.855207	0.244527
479.224928	0.227151
479.594591	0.215353
479.964194	0.218568
480.333739	0.219927
480.703226	0.221423
481.072653	0.219821
481.442022	0.215482
481.811333	0.211815
482.180584	0.215379
482.549777	0.220577
482.918912	0.223945
483.287988	0.223687
483.657005	0.223144
484.025964	0.229786
484.394864	0.227194
484.763706	0.227617
485.132489	0.232535
485.501213	0.233385
485.869879	0.231646
486.238487	0.235060
486.607036	0.232742
486.975527	0.237098
487.343959	0.233245
487.712333	0.232353
488.080648	0.233823
488.448905	0.232981
488.817104	0.234316
489.185244	0.228641
489.553326	0.225262
489.921350	0.215507
490.289315	0.198101
490.657222	0.193068
491.025070	0.194448
491.392861	0.196255
491.760593	0.202027
492.128267	0.207773
492.495883	0.213257
492.863440	0.219268
493.230939	0.225547
493.598380	0.227208
493.965763	0.229326
494.333088	0.231445
494.700354	0.232868
495.067563	0.231880
495.434713	0.235021
495.801805	0.233200
496.168839	0.234706
496.535815	0.236119
496.902733	0.235904
497.269593	0.237481
497.636395	0.235371
498.003139	0.235413
498.369825	0.238724
498.736453	0.235089
499.103023	0.236545
499.469535	0.235994
499.835989	0.236118
500.202385	0.237150
500.568723	0.240269
500.935003	0.235551
501.301226	0.239840
501.667390	0.234167
502.033497	0.232016
502.399546	0.235042
502.765537	0.236497
503.131470	0.235717
503.497345	0.231801
503.863163	0.240481
504.228923	0.233638
504.594625	0.232158
504.960269	0.237473
505.325856	0.232691
505.691385	0.237005
506.056856	0.233889
506.422270	0.233074
506.787625	0.235539
507.152924	0.233025
507.518164	0.233621
507.883347	0.235340
508.248472	0.237032
508.613540	0.232045
508.978550	0.234759
509.343503	0.234949
509.708398	0.232738
510.073236	0.230296
510.438016	0.230355
510.802738	0.231078
511.167403	0.230281
511.532010	0.232040
511.896561	0.227521
512.261053	0.226056
512.625488	0.228364
512.989866	0.228762
513.354186	0.228876
513.718449	0.230911
514.082655	0.227112
514.446803	0.229521
514.810894	0.227087
515.174927	0.229673
515.538904	0.228970
515.902822	0.226192
516.266684	0.228446
516.630488	0.229661
516.994235	0.228338
517.357925	0.227118
517.721558	0.225680
518.085133	0.224920
518.448651	0.224979
518.812112	0.227262
519.175516	0.226809
519.538863	0.224930
519.902152	0.226364
520.265385	0.223104
520.628560	0.224838
520.991678	0.225345
521.354739	0.224062
521.717743	0.225404
522.080690	0.225863
522.443580	0.223148
522.806413	0.224240
523.169189	0.223223
523.531908	0.222170
523.894569	0.225868
524.257174	0.225887
524.619722	0.223525
524.982213	0.224528
525.344647	0.223719
525.707025	0.224274
526.069345	0.222382
526.431608	0.223942
526.793815	0.221998
527.155964	0.226199
527.518057	0.225032
527.880093	0.226201
528.242072	0.224870
528.603995	0.226659
528.965860	0.228231
529.327669	0.227271
529.689421	0.228165
530.051117	0.229101
530.412755	0.226629
530.774337	0.229084
531.135862	0.229407
531.497331	0.228620
531.858743	0.231686
532.220098	0.228338
532.581396	0.230699
532.942638	0.231260
533.303824	0.232177
533.664953	0.231810
534.026025	0.233642
534.387040	0.231790
534.747999	0.231521
535.108902	0.230674
535.469748	0.235492
535.830537	0.233333
536.191270	0.233922
536.551947	0.233243
536.912567	0.233347
537.273131	0.235337
537.633638	0.234909
537.994089	0.235432
538.354483	0.236419
538.714821	0.233840
539.075103	0.233065
539.435328	0.234291
539.795497	0.237968
540.155609	0.234540
540.515665	0.232430
540.875665	0.238333
541.235609	0.236574
541.595496	0.237170
541.955328	0.233331
542.315102	0.236013
542.674821	0.237325
543.034483	0.236941
543.394090	0.237048
543.753640	0.238710
544.113134	0.233786
544.472571	0.237152
544.831953	0.234115
545.191278	0.237898
545.550548	0.237451
545.909761	0.234407
546.268918	0.235119
546.628019	0.233204
546.987064	0.236212
547.346053	0.237912
547.704986	0.235619
548.063863	0.235932
548.422684	0.236350
548.781449	0.238115
549.140158	0.235604
549.498811	0.238642
549.857408	0.241587
550.215949	0.236328
550.574434	0.239656
550.932864	0.237371
551.291237	0.236209
551.649555	0.237661
552.007817	0.237507
552.366022	0.237879
552.724173	0.238328
553.082267	0.238928
553.440305	0.235338
553.798288	0.239737
554.156215	0.236397
554.514086	0.236986
554.871902	0.240278
555.229661	0.239497
555.587365	0.240088
555.945014	0.242438
556.302606	0.239445
556.660143	0.242037
557.017625	0.238482
557.375050	0.240967
557.732421	0.237652
558.089735	0.239733
558.446994	0.239820
558.804197	0.238958
559.161345	0.238917
559.518437	0.242592
559.875474	0.240336
560.232455	0.239599
560.589381	0.240991
560.946251	0.240836
561.303065	0.238328
561.659825	0.240022
562.016528	0.241565
562.373177	0.244104
562.729770	0.241569
563.086307	0.243901
563.442789	0.241495
563.799216	0.244156
564.155587	0.242700
564.511904	0.243797
564.868164	0.244341
565.224370	0.243967
565.580520	0.246058
565.936615	0.245548
566.292654	0.248727
566.648638	0.245677
567.004567	0.246492
567.360441	0.247194
567.716260	0.249204
568.072023	0.247111
568.427732	0.247600
568.783385	0.250152
569.138982	0.248256
569.494525	0.247863
569.850013	0.250861
570.205445	0.249348
570.560823	0.251447
570.916145	0.253831
571.271412	0.252127
571.626625	0.253435
571.981782	0.253815
572.336884	0.254810
572.691931	0.254667
573.046923	0.255503
573.401860	0.256957
573.756743	0.258577
574.111570	0.257411
574.466342	0.258001
574.821059	0.256976
575.175722	0.260171
575.530330	0.259824
575.884882	0.259860
576.239380	0.261790
576.593823	0.262253
576.948211	0.261666
577.302544	0.265515
577.656823	0.264817
578.011047	0.264903
578.365216	0.265533
578.719330	0.267878
579.073389	0.267356
579.427394	0.268602
579.781344	0.269442
580.135239	0.270874
580.489080	0.270231
580.842866	0.273440
581.196597	0.273403
581.550273	0.272114
581.903895	0.272865
582.257463	0.271133
582.610975	0.274577
582.964434	0.273763
583.317837	0.276745
583.671186	0.276803
584.024481	0.277004
584.377721	0.279127
584.730906	0.279942
585.084037	0.279390
585.437113	0.280984
585.790135	0.280663
586.143103	0.283361
586.496016	0.284622
586.848874	0.281800
587.201679	0.282841
587.554428	0.285710
587.907124	0.284591
588.259765	0.285293
588.612352	0.285838
588.964884	0.289566
589.317362	0.289353
589.669786	0.289293
590.022155	0.287858
590.374470	0.287392
590.726731	0.289127
591.078937	0.293941
591.431090	0.289929
591.783188	0.294336
592.135232	0.294885
592.487222	0.294696
592.839157	0.293060
593.191038	0.295301
593.542866	0.297016
593.894639	0.301053
594.246358	0.298707
594.598022	0.298360
594.949633	0.301915
595.301190	0.302455
595.652692	0.301650
596.004141	0.297815
596.355535	0.306133
596.706876	0.306304
597.058162	0.308893
597.409395	0.306231
597.760573	0.303928
598.111698	0.307426
598.462768	0.307728
598.813785	0.309292
599.164748	0.310091
599.515657	0.310378
599.866511	0.313830
600.217312	0.309239
600.568060	0.314326
600.918753	0.311131
601.269392	0.311429
601.619978	0.315187
601.970510	0.312814
602.320988	0.312805
602.671412	0.310304
603.021783	0.312823
603.372100	0.314396
603.722363	0.313970
604.072572	0.315057
604.422728	0.314883
604.772830	0.317000
605.122878	0.316121
605.472872	0.317320
605.822813	0.315186
606.172701	0.318060
606.522534	0.315077
606.872314	0.315485
607.222041	0.316107
607.571714	0.314408
607.921333	0.315863
608.270899	0.315808
608.620411	0.312145
608.969870	0.315948
609.319276	0.316317
609.668627	0.316379
610.017926	0.314862
610.367171	0.313432
610.716362	0.313857
611.065500	0.314415
611.414585	0.313008
611.763616	0.313692
612.112594	0.313869
612.461518	0.313519
612.810389	0.311022
613.159207	0.313536
613.507971	0.315264
613.856682	0.310772
614.205340	0.312685
614.553945	0.309407
614.902496	0.313389
615.250994	0.311073
615.599439	0.312364
615.947830	0.311616
616.296169	0.312635
616.644454	0.312004
616.992686	0.311863
617.340864	0.309743
617.688990	0.313434
618.037063	0.309888
618.385082	0.312182
618.733048	0.308601
619.080961	0.311381
619.428821	0.310387
619.776628	0.310154
620.124382	0.311765
620.472083	0.312460
620.819731	0.311559
621.167326	0.315647
621.514868	0.315616
621.862357	0.319595
622.209793	0.319265
622.557176	0.321413
622.904506	0.322788
623.251783	0.324861
623.599007	0.326971
623.946179	0.326437
624.293297	0.328720
624.640363	0.332531
624.987376	0.333006
625.334336	0.335348
625.681243	0.338022
626.028097	0.338441
626.374899	0.339326
626.721647	0.339725
627.068343	0.342925
627.414987	0.343836
627.761577	0.346286
628.108115	0.344335
628.454600	0.349624
628.801032	0.347052
629.147412	0.348893
629.493739	0.349286
629.840014	0.352402
630.186236	0.349659
630.532405	0.355495
630.878521	0.352615
631.224585	0.355327
631.570597	0.359170
631.916556	0.357192
632.262462	0.356806
632.608316	0.359256
632.954117	0.360278
633.299866	0.361370
633.645562	0.361276
633.991206	0.365793
634.336797	0.368466
634.682336	0.370943
635.027823	0.372237
635.373257	0.373472
635.718639	0.376551
636.063968	0.375566
636.409245	0.382323
636.754470	0.381932
637.099642	0.384565
637.444762	0.388096
637.789829	0.387226
638.134845	0.390784
638.479808	0.391267
638.824719	0.390954
639.169577	0.395760
639.514383	0.394148
639.859137	0.398785
640.203839	0.398238
640.548489	0.399190
640.893086	0.399936
641.237632	0.401333
641.582125	0.400315
641.926566	0.401750
642.270955	0.401858
642.615292	0.402132
642.959576	0.401062
643.303809	0.402024
643.647990	0.401329
643.992118	0.402079
644.336195	0.405144
644.680219	0.403610
645.024192	0.404688
645.368112	0.398551
645.711981	0.397416
646.055797	0.392187
646.399562	0.395137
646.743274	0.387038
647.086935	0.384604
647.430544	0.384594
647.774101	0.383390
648.117606	0.383331
648.461059	0.383423
648.804460	0.385946
649.147810	0.391155
649.491108	0.392790
649.834354	0.394284
650.177548	0.399972
650.520690	0.405220
650.863781	0.406565
651.206820	0.405793
651.549807	0.409968
651.892742	0.414220
652.235626	0.413797
652.578458	0.415005
652.921238	0.420874
653.263967	0.418748
653.606644	0.422683
653.949269	0.422640
654.291843	0.426626
654.634365	0.423230
654.976836	0.426061
655.319255	0.426547
655.661622	0.428368
656.003938	0.428394
656.346203	0.430837
656.688416	0.429138
657.030577	0.432369
657.372687	0.433809
657.714746	0.434792
658.056753	0.432141
658.398708	0.435791
658.740612	0.436938
659.082465	0.433027
659.424266	0.433713
659.766016	0.432739
660.107715	0.435880
660.449362	0.434995
660.790958	0.435438
661.132503	0.435924
661.473996	0.433609
661.815438	0.434623
662.156829	0.434452
662.498168	0.435009
662.839456	0.436782
663.180693	0.434621
663.521879	0.434530
663.863013	0.435315
664.204097	0.434027
664.545129	0.430967
664.886110	0.431617
665.227040	0.428516
665.567918	0.430964
665.908746	0.429126
666.249522	0.428191
666.590248	0.429815
666.930922	0.427917
667.271545	0.427043
667.612118	0.426823
667.952639	0.428787
668.293109	0.427118
668.633528	0.430249
668.973896	0.429929
669.314213	0.430089
669.654480	0.432138
669.994695	0.431965
670.334859	0.432900
670.674973	0.433568
671.015035	0.433342
671.355047	0.433749
671.695008	0.434641
672.034918	0.436301
672.374777	0.435739
672.714585	0.436840
673.054342	0.436295
673.394049	0.436936
673.733705	0.434205
674.073310	0.435651
674.412864	0.439101
674.752368	0.438966
675.091820	0.439586
675.431223	0.443461
675.770574	0.443787
676.109875	0.446656
676.449125	0.446944
676.788324	0.448732
677.127473	0.454430
677.466571	0.453844
677.805619	0.455732
678.144616	0.456997
678.483562	0.458332
678.822458	0.461124
679.161303	0.462233
679.500098	0.462190
679.838842	0.464175
680.177535	0.463596
680.516179	0.461997
680.854771	0.461163
681.193314	0.454499
681.531805	0.445816
681.870247	0.434501
682.208638	0.426569
682.546978	0.425845
682.885268	0.427654
683.223508	0.434208
683.561697	0.437491
683.899836	0.440677
684.237925	0.444086
684.575963	0.446416
684.913951	0.449538
685.251889	0.445297
685.589776	0.447158
685.927614	0.449806
686.265401	0.444066
686.603137	0.445593
686.940824	0.439364
687.278460	0.437493
687.616046	0.436842
687.953582	0.431219
688.291068	0.432755
688.628504	0.428740
688.965889	0.430561
689.303224	0.435240
689.640510	0.439154
689.977745	0.444824
690.314930	0.452518
690.652065	0.457163
690.989150	0.465281
691.326185	0.470622
691.663170	0.475584
692.000105	0.483348
692.336990	0.490371
692.673825	0.492747
693.010610	0.499246
693.347345	0.505074
693.684030	0.506162
694.020665	0.511294
694.357251	0.520740
694.693786	0.519792
695.030272	0.524359
695.366707	0.527275
695.703093	0.530515
696.039429	0.528230
696.375716	0.529933
696.711952	0.533040
697.048139	0.535059
697.384276	0.536611
697.720363	0.534617
698.056400	0.534101
698.392388	0.539582
698.728326	0.542635
699.064214	0.545651
699.400053	0.545945
699.735842	0.549840
700.071581	0.552935
700.407270	0.555802
700.742910	0.557915
701.078501	0.564890
701.414042	0.565268
701.749533	0.568173
702.084974	0.577177
702.420366	0.569217
702.755709	0.577509
703.091002	0.584463
703.426246	0.578427
703.761440	0.583824
704.096584	0.588914
704.431679	0.585045
704.766725	0.587793
705.101721	0.589910
705.436668	0.585429
705.771565	0.592761
706.106413	0.589862
706.441212	0.584574
706.775961	0.582950
707.110661	0.585722
707.445311	0.582123
707.779913	0.579843
708.114465	0.578173
708.448967	0.574928
708.783421	0.566678
709.117825	0.561609
709.452180	0.562359
709.786485	0.555976
710.120742	0.545473
710.454949	0.547280
710.789107	0.539505
711.123216	0.530355
711.457275	0.532209
711.791286	0.523215
712.125247	0.521450
712.459159	0.532665
712.793023	0.525003
713.126837	0.529637
713.460602	0.529913
713.794318	0.539109
714.127985	0.538173
714.461602	0.548217
714.795171	0.550680
715.128691	0.559009
715.462162	0.566536
715.795584	0.572308
716.128957	0.574302
716.462281	0.582066
716.795556	0.585350
717.128782	0.590369
717.461960	0.599335
717.795088	0.598198
718.128167	0.604493
718.461198	0.613255
718.794180	0.614355
719.127113	0.616397
719.459997	0.619751
719.792833	0.627206
720.125619	0.627371
720.458357	0.633587
720.791046	0.632735
721.123686	0.636233
721.456278	0.643475
721.788821	0.640451
722.121315	0.645212
722.453761	0.649581
722.786158	0.647380
723.118506	0.643317
723.450805	0.651362
723.783056	0.646706
724.115259	0.644794
724.447412	0.643747
724.779518	0.645619
725.111574	0.643761
725.443582	0.639992
725.775542	0.642298
726.107453	0.633696
726.439315	0.634432
726.771129	0.632549
727.102895	0.625969
727.434612	0.619366
727.766281	0.617351
728.097901	0.615732
728.429473	0.615963
728.760996	0.614060
729.092471	0.614013
729.423897	0.618516
729.755276	0.616598
730.086606	0.617580
730.417887	0.612013
730.749120	0.602699
731.080305	0.593396
731.411442	0.589620
731.742530	0.594228
732.073570	0.593007
732.404562	0.585509
732.735506	0.586482
733.066401	0.592238
733.397249	0.600976
733.728048	0.613236
734.058798	0.624603
734.389501	0.635381
734.720156	0.645451
735.050762	0.652470
735.381320	0.654363
735.711831	0.664196
736.042293	0.668845
736.372707	0.664422
736.703073	0.668467
737.033391	0.671369
737.363661	0.667899
737.693883	0.662953
738.024056	0.662665
738.354182	0.663305
738.684260	0.651431
739.014290	0.647679
739.344272	0.648511
739.674207	0.641755
740.004093	0.641831
740.333931	0.641699
740.663722	0.642808
740.993464	0.643216
741.323159	0.646609
741.652806	0.651583
741.982405	0.655779
742.311956	0.660656
742.641460	0.663097
742.970915	0.666988
743.300323	0.674408
743.629683	0.681295
743.958996	0.682595
744.288260	0.687108
744.617477	0.693512
744.946647	0.694959
745.275768	0.700011
745.604842	0.700734
745.933869	0.710733
746.262847	0.710888
746.591778	0.703535
746.920662	0.710409
747.249498	0.716397
747.578286	0.706927
747.907027	0.703272
748.235720	0.704369
748.564365	0.699223
748.892963	0.699755
749.221514	0.702952
749.550017	0.707770
749.878473	0.706596
750.206881	0.713144
750.535242	0.715399
750.863555	0.714579
751.191821	0.715404
751.520039	0.718002
751.848210	0.723953
752.176334	0.715997
752.504411	0.715687
752.832440	0.723392
753.160421	0.727988
753.488356	0.725260
753.816243	0.722788
754.144082	0.731229
754.471875	0.734514
754.799620	0.730583
755.127318	0.732089
755.454969	0.731876
755.782572	0.729861
756.110129	0.737082
756.437638	0.738190
756.765100	0.734198
757.092515	0.733260
757.419882	0.731775
757.747203	0.737249
758.074477	0.736211
758.401703	0.733046
758.728882	0.729014
759.056014	0.727541
759.383099	0.727222
759.710138	0.728128
760.037129	0.723913
760.364073	0.718129
760.690970	0.720820
761.017820	0.727306
761.344623	0.721376
761.671379	0.712859
761.998088	0.701405
762.324751	0.678285
762.651366	0.637140
762.977935	0.569701
763.304456	0.517408
763.630931	0.508186
763.957359	0.546759
764.283740	0.591850
764.610074	0.618887
764.936362	0.650287
765.262602	0.676425
765.588796	0.697731
765.914943	0.716142
766.241044	0.734615
766.567097	0.740684
766.893104	0.750025
767.219064	0.756730
767.544978	0.763333
767.870845	0.777087
768.196665	0.780556
768.522438	0.779221
768.848165	0.780401
769.173846	0.789650
769.499479	0.793315
769.825066	0.797021
770.150607	0.802044
770.476101	0.797502
770.801548	0.797962
771.126949	0.809693
771.452303	0.812878
771.777611	0.812639
772.102872	0.811889
772.428087	0.817368
772.753256	0.821109
773.078378	0.822617
773.403453	0.832225
773.728482	0.835692
774.053465	0.829476
774.378401	0.832068
774.703291	0.840656
775.028135	0.840940
775.352932	0.841817
775.677683	0.845468
776.002388	0.846098
776.327046	0.845309
776.651658	0.848605
776.976224	0.851268
777.300743	0.852563
777.625216	0.853884
777.949643	0.855923
778.274024	0.856136
778.598359	0.858107
778.922647	0.855720
779.246889	0.856727
779.571086	0.860859
779.895236	0.863377
780.219339	0.860811
780.543397	0.857431
780.867409	0.855751
781.191374	0.858626
781.515294	0.859057
781.839167	0.858735
782.162995	0.862023
782.486776	0.858640
782.810511	0.858979
783.134201	0.864005
783.457844	0.860759
783.781441	0.864497
784.104993	0.869610
784.428498	0.870001
784.751958	0.866195
785.075372	0.867773
785.398739	0.872133
785.722061	0.868317
786.045337	0.863695
786.368568	0.870116
786.691752	0.870476
787.014891	0.856559
787.337983	0.847810
787.661030	0.839506
787.984031	0.822477
788.306987	0.810117
788.629897	0.812604
788.952760	0.816182
789.275579	0.820282
789.598351	0.835219
789.921078	0.848832
790.243759	0.850869
790.566395	0.855683
790.888984	0.863008
791.211529	0.868118
791.534027	0.870406
791.856480	0.873382
792.178888	0.878855
792.501249	0.881337
792.823566	0.882118
793.145836	0.882787
793.468062	0.883573
793.790241	0.883447
794.112375	0.882654
794.434464	0.878256
794.756507	0.877709
795.078505	0.876700
795.400457	0.871278
795.722364	0.858831
796.044226	0.851699
796.366042	0.850258
796.687812	0.854675
797.009538	0.851142
797.331218	0.854225
797.652852	0.858621
797.974442	0.863764
798.295986	0.864124
798.617484	0.866248
798.938938	0.870961
799.260346	0.875313
799.581709	0.877461
799.903026	0.879432
800.224299	0.879669
800.545526	0.882752
800.866708	0.887961
801.187845	0.892738
801.508936	0.890955
801.829983	0.889954
802.150984	0.892425
802.471940	0.897917
802.792851	0.896092
803.113717	0.898535
803.434538	0.895173
803.755314	0.898079
804.076045	0.899127
804.396731	0.899964
804.717372	0.899964
805.037967	0.901504
805.358518	0.899781
805.679024	0.895869
805.999485	0.896914
806.319901	0.897165
806.640272	0.898744
806.960598	0.894876
807.280879	0.892603
807.601115	0.892120
807.921306	0.895248
808.241453	0.895299
808.561554	0.892680
808.881611	0.892979
809.201623	0.896267
809.521590	0.895341
809.841513	0.896982
810.161390	0.895488
810.481223	0.897315
810.801011	0.901255
811.120755	0.902180
811.440453	0.901026
811.760107	0.900019
812.079716	0.899470
812.399281	0.903175
812.718801	0.905546
813.038276	0.906987
813.357707	0.906555
813.677093	0.902595
813.996434	0.905569
814.315731	0.907996
814.634983	0.909221
814.954191	0.907795
815.273354	0.903570
815.592473	0.901297
815.911547	0.900721
816.230577	0.898390
816.549562	0.895868
816.868502	0.896491
817.187399	0.892374
817.506250	0.888107
817.825058	0.889240
818.143821	0.886183
818.462539	0.880606
818.781213	0.873229
819.099843	0.861283
819.418429	0.844995
819.736970	0.829142
820.055466	0.808541
820.373919	0.783835
820.692327	0.749942
821.010691	0.715291
821.329011	0.636586
821.647286	0.520907
821.965517	0.407028
822.283704	0.364127
822.601847	0.365308
822.919945	0.400639
823.237999	0.434761
823.556010	0.482086
823.873976	0.537943
824.191897	0.588679
824.509775	0.631777
824.827609	0.677287
825.145398	0.699701
825.463144	0.702249
825.780845	0.686109
826.098502	0.667574
826.416116	0.620711
826.733685	0.576506
827.051210	0.567352
827.368692	0.582626
827.686129	0.620408
828.003522	0.673798
828.320872	0.722124
828.638177	0.765285
828.955439	0.798524
829.272656	0.820180
829.589830	0.838129
829.906960	0.853559
830.224046	0.864576
830.541088	0.875079
830.858086	0.879763
831.175041	0.886425
831.491952	0.886718
831.808819	0.883158
832.125642	0.876773
832.442421	0.860602
832.759157	0.838754
833.075849	0.792410
833.392497	0.729087
833.709101	0.688319
834.025662	0.697094
834.342179	0.729587
834.658653	0.767675
834.975083	0.804553
835.291469	0.831108
835.607811	0.853528
835.924110	0.869604
836.240366	0.887409
836.556578	0.900871
836.872746	0.908298
837.188871	0.913899
837.504952	0.920387
837.820990	0.923940
838.136984	0.926094
838.452935	0.929582
838.768842	0.930236
839.084706	0.924354
839.400526	0.898298
839.716303	0.857805
840.032037	0.835369
840.347727	0.839861
840.663373	0.857686
840.978977	0.879529
841.294537	0.900796
841.610054	0.918637
841.925527	0.925679
842.240957	0.932207
842.556344	0.939302
842.871687	0.945792
843.186987	0.950031
843.502244	0.950478
843.817458	0.951893
844.132629	0.955540
844.447756	0.960229
844.762840	0.960026
845.077881	0.959706
845.392879	0.960616
845.707833	0.963236
846.022745	0.963383
846.337613	0.965107
846.652438	0.966135
846.967221	0.965571
847.281960	0.964756
847.596656	0.966636
847.911309	0.966176
848.225919	0.966991
848.540485	0.968537
848.855009	0.968734
849.169490	0.968023
849.483928	0.969428
849.798323	0.969186
850.112675	0.968901
850.426984	0.969642
850.741251	0.970280
851.055474	0.970671
851.369654	0.967860
851.683792	0.968427
851.997887	0.970055
852.311938	0.970981
852.625947	0.969989
852.939914	0.969150
853.253837	0.968702
853.567718	0.970248
853.881555	0.970014
854.195350	0.967944
854.509103	0.969559
854.822812	0.969063
855.136479	0.970454
855.450103	0.969281
855.763685	0.969483
856.077224	0.968556
856.390720	0.971136
856.704173	0.970768
857.017584	0.968946
857.330953	0.966395
857.644278	0.967942
857.957561	0.967729
858.270802	0.967876
858.584000	0.968603
858.897155	0.966945
859.210268	0.968012
859.523339	0.967554
859.836367	0.970437
860.149352	0.969995
860.462295	0.968316
860.775195	0.969341
861.088054	0.968655
861.400869	0.969263
861.713642	0.969834
862.026373	0.970425
862.339062	0.969898
862.651708	0.968252
862.964312	0.967319
863.276873	0.969950
863.589392	0.968815
863.901869	0.966569
864.214303	0.964371
864.526696	0.963158
864.839045	0.963116
865.151353	0.961986
865.463619	0.963175
865.775842	0.961500
866.088023	0.961577
866.400162	0.963094
866.712258	0.962660
867.024313	0.961924
867.336325	0.962670
867.648296	0.964174
867.960224	0.962301
868.272110	0.961944
868.583954	0.963307
868.895755	0.963766
869.207515	0.961128
869.519233	0.959385
869.830909	0.960288
870.142542	0.962050
870.454134	0.961086
870.765684	0.960551
871.077191	0.957055
871.388657	0.958992
871.700081	0.957262
872.011463	0.957864
872.322803	0.958480
872.634101	0.956646
872.945357	0.953985
873.256571	0.953510
873.567744	0.951654
873.878874	0.954379
874.189963	0.951889
874.501010	0.950396
874.812015	0.949646
875.122979	0.950794
875.433900	0.952600
875.744780	0.953573
876.055618	0.951115
876.366415	0.949695
876.677169	0.949804
876.987882	0.951678
877.298554	0.950782
877.609183	0.946871
877.919771	0.946033
878.230317	0.942091
878.540822	0.939805
878.851285	0.934693
879.161707	0.926324
879.472087	0.913638
879.782425	0.897185
880.092722	0.862713
880.402977	0.811107
880.713191	0.749193
881.023363	0.690001
881.333494	0.655457
881.643583	0.627532
881.953631	0.627305
882.263637	0.655526
882.573602	0.695295
882.883526	0.720737
883.193408	0.746092
883.503248	0.769146
883.813048	0.795793
884.122806	0.825465
884.432522	0.849765
884.742197	0.869538
885.051831	0.880326
885.361424	0.890648
885.670975	0.901669
885.980485	0.912671
886.289954	0.919135
886.599382	0.924891
886.908768	0.929156
887.218113	0.932913
887.527417	0.938603
887.836680	0.941314
888.145901	0.943612
888.455082	0.945386
888.764221	0.950637
889.073319	0.952325
889.382376	0.952572
889.691392	0.953091
890.000366	0.952445
890.309300	0.952809
890.618193	0.952134
890.927044	0.950675
891.235855	0.950572
891.544625	0.950291
891.853353	0.950871
892.162041	0.949240
892.470687	0.942971
892.779293	0.936956
893.087858	0.934546
893.396381	0.925484
893.704864	0.912040
894.013306	0.888720
894.321707	0.861284
894.630068	0.846309
894.938387	0.841742
895.246665	0.842870
895.554903	0.855689
895.863100	0.868703
896.171256	0.886110
896.479371	0.905139
896.787446	0.918640
897.095480	0.925032
897.403473	0.927612
897.711425	0.932171
898.019336	0.939854
898.327207	0.942183
898.635038	0.944251
898.942827	0.944929
899.250576	0.947610
899.558284	0.951243
899.865952	0.953805
900.173579	0.955168
900.481165	0.954262
900.788711	0.958235
901.096216	0.960723
901.403681	0.961375
901.711105	0.962788
902.018489	0.962862
902.325832	0.961631
902.633135	0.960820
902.940397	0.955710
903.247619	0.943119
903.554800	0.917930
903.861941	0.876849
904.169041	0.841843
904.476101	0.823183
904.783121	0.825445
905.090100	0.841290
905.397039	0.862768
905.703938	0.885158
906.010796	0.904422
906.317614	0.922752
906.624391	0.933245
906.931129	0.943021
907.237826	0.951289
907.544483	0.958008
907.851099	0.962098
908.157675	0.966978
908.464211	0.969755
908.770707	0.972048
909.077163	0.973523
909.383578	0.974215
909.689954	0.976064
909.996289	0.976267
910.302584	0.977543
910.608839	0.979839
910.915054	0.977974
911.221229	0.978043
911.527363	0.977180
911.833458	0.977582
912.139513	0.976374
912.445527	0.974097
912.751502	0.973377
913.057436	0.971506
913.363331	0.969065
913.669186	0.966290
913.975000	0.961280
914.280775	0.954304
914.586510	0.947484
914.892205	0.934109
915.197859	0.912781
915.503475	0.885530
915.809050	0.864763
916.114585	0.859058
916.420081	0.856813
916.725536	0.853691
917.030952	0.862199
917.336328	0.874860
917.641665	0.889828
917.946961	0.905862
918.252218	0.917331
918.557435	0.926890
918.862612	0.935399
919.167750	0.941183
919.472848	0.946631
919.777906	0.952252
920.082925	0.957341
920.387904	0.960846
920.692843	0.962507
920.997743	0.963225
921.302603	0.967185
921.607423	0.969085
921.912204	0.970872
922.216946	0.971893
922.521647	0.972499
922.826310	0.974418
923.130932	0.976596
923.435516	0.978138
923.740059	0.979449
924.044564	0.978240
924.349028	0.981094
924.653454	0.982462
924.957840	0.984471
925.262186	0.984127
925.566493	0.983834
925.870761	0.984983
926.174989	0.985884
926.479178	0.988884
926.783328	0.988074
927.087438	0.987853
927.391509	0.988149
927.695541	0.989818
927.999533	0.989648
928.303486	0.988859
928.607400	0.991866
928.911275	0.988229
929.215110	0.991080
929.518906	0.991362
929.822663	0.989744
930.126381	0.991173
930.430060	0.990861
930.733699	0.990247
931.037299	0.989483
931.340861	0.990071
931.644383	0.989455
931.947866	0.989355
932.251309	0.990216
932.554714	0.991064
932.858080	0.991020
933.161407	0.990784
933.464694	0.991446
933.767943	0.989838
934.071153	0.990390
934.374323	0.991842
934.677455	0.991172
934.980548	0.991068
935.283602	0.991267
935.586617	0.991395
935.889593	0.992126
936.192530	0.990988
936.495428	0.990552
936.798287	0.991031
937.101108	0.990097
937.403890	0.988759
937.706632	0.988132
938.009336	0.987694
938.312002	0.986509
938.614628	0.983608
938.917216	0.983649
939.219765	0.981582
939.522275	0.983350
939.824747	0.983624
940.127179	0.982755
940.429573	0.984579
940.731929	0.984016
941.034246	0.983523
941.336524	0.985324
941.638763	0.986187
941.940964	0.985324
942.243126	0.987099
942.545250	0.986853
942.847335	0.988416
943.149381	0.987794
943.451389	0.988937
943.753359	0.988724
944.055290	0.990111
944.357182	0.989504
944.659036	0.988146
944.960851	0.988921
945.262628	0.989839
945.564367	0.990134
945.866067	0.989367
946.167729	0.990398
946.469352	0.990702
946.770937	0.989316
947.072484	0.990457
947.373992	0.990060
947.675462	0.990457
947.976893	0.990100
948.278286	0.990359
948.579641	0.990753
948.880958	0.990758
949.182236	0.990718
949.483476	0.991124
949.784678	0.991341
950.085841	0.991395
950.386967	0.991015
950.688054	0.990808
950.989103	0.990882
951.290114	0.988693
951.591087	0.988569
951.892021	0.989938
952.192917	0.988618
952.493776	0.986732
952.794596	0.987427
953.095378	0.987393
953.396122	0.987751
953.696828	0.987734
953.997496	0.989483
954.298126	0.990984
954.598718	0.990194
954.899272	0.991639
955.199788	0.990403
955.500266	0.991438
955.800706	0.992684
956.101108	0.992236
956.401472	0.994127
956.701798	0.994289
957.002087	0.992875
957.302337	0.994231
957.602550	0.994670
957.902724	0.994625
958.202861	0.995411
958.502960	0.995293
958.803022	0.993941
959.103045	0.996794
959.403031	0.995775
959.702979	0.995243
960.002889	0.995553
960.302762	0.994770
960.602596	0.996006
960.902393	0.995315
961.202153	0.996455
961.501875	0.997034
961.801559	0.995679
962.101205	0.995219
962.400814	0.997020
962.700385	0.996654
962.999918	0.996520
963.299414	0.996104
963.598873	0.995491
963.898293	0.996258
964.197677	0.996273
964.497022	0.995526
964.796331	0.997451
965.095601	0.996797
965.394835	0.996041
965.694030	0.996569
965.993189	0.997696
966.292309	0.996968
966.591393	0.997834
966.890439	0.997675
967.189447	0.995671
967.488419	0.996849
967.787353	0.996357
968.086249	0.996102
968.385108	0.998067
968.683930	0.996854
968.982714	0.997027
969.281462	0.997436
969.580172	0.996946
969.878844	0.997274
970.177480	0.996663
970.476078	0.998268
970.774639	0.996851
971.073162	0.997656
971.371649	0.996090
971.670098	0.996456
971.968510	0.996972
972.266885	0.996074
972.565223	0.995761
972.863524	0.995587
973.161788	0.996557
973.460014	0.997546
973.758204	0.995141
974.056356	0.997245
974.354471	0.994777
974.652550	0.996127
974.950591	0.996686
975.248595	0.996353
975.546563	0.997146
975.844493	0.996913
976.142386	0.997521
976.440243	0.996639
976.738062	0.997548
977.035845	0.997687
977.333590	0.997351
977.631299	0.998295
977.928971	0.996801
978.226606	0.998315
978.524204	0.995104
978.821765	0.998105
979.119290	0.996752
979.416777	0.997910
979.714228	0.996481
980.011642	0.995495
980.309020	0.997048
980.606360	0.997217
980.903664	0.999476
981.200931	0.997092
981.498162	0.994714
981.795356	0.994685
982.092513	0.993596
982.389633	0.994151
982.686717	0.991063
982.983764	0.991831
983.280775	0.990104
983.577749	0.989497
983.874686	0.991207
984.171587	0.992277
984.468451	0.994454
984.765279	0.995149
985.062070	0.992383
985.358824	0.995428
985.655543	0.996159
985.952224	0.995351
986.248869	0.995548
986.545478	0.997535
986.842050	0.997263
987.138586	0.995788
987.435086	0.997157
987.731549	0.998533
988.027975	0.997999
988.324366	0.998748
988.620719	0.997534
988.917037	0.996536
989.213318	0.997780
989.509563	0.998594
989.805772	0.997997
990.101944	0.998551
990.398080	0.997193
990.694180	0.998305
990.990244	0.996898
991.286271	0.997414
991.582262	0.998485
991.878217	0.997402
992.174136	0.998864
992.470019	0.997600
992.765865	0.998415
993.061676	0.998724
993.357450	0.997266
993.653188	0.997727
993.948890	0.997389
994.244556	0.997358
994.540186	0.997053
994.835780	0.996180
995.131337	0.997244
995.426859	0.997795
995.722345	0.996547
996.017795	0.996995
996.313208	0.995899
996.608586	0.996477
996.903928	0.997085
997.199234	0.996644
997.494504	0.996037
997.789738	0.996030
998.084936	0.997490
998.380099	0.997884
998.675225	0.998849
998.970316	0.997895
999.265371	0.998493
999.560390	0.997562
999.855373	0.999016
1000.150320	0.998159
1000.445232	0.997834
1000.740108	0.997647
1001.034948	0.998422
1001.329752	0.998206
1001.624521	0.999438
1001.919254	0.998034
1002.213951	1.000144
1002.508613	0.997677
1002.803239	0.998891
1003.097829	1.000036
1003.392384	0.998318
1003.686903	0.998461
1003.981386	0.999183
1004.275834	0.999896
1004.570246	0.997769
1004.864623	0.998480
1005.158964	0.999750
1005.453270	0.999511
1005.747540	0.997993
1006.041775	0.998432
1006.335974	0.999053
1006.630138	0.999422
1006.924266	0.999384
1007.218359	1.000091
1007.512416	0.999042
1007.806438	0.999223
1008.100425	0.999506
1008.394376	0.999263
1008.688292	0.998434
1008.982172	1.001227
1009.276017	0.998322
1009.569827	0.999235
1009.863602	0.998868
1010.157341	1.000284
1010.451045	0.999801
1010.744714	0.998974
1011.038347	1.001070
1011.331945	0.999389
1011.625508	0.997837
1011.919036	0.998488
1012.212528	0.999122
1012.505986	0.997854
1012.799408	0.999164
1013.092795	0.998757
1013.386147	0.999687
1013.679464	0.999399
1013.972745	0.998826
1014.265992	0.997283
1014.559204	0.998457
1014.852380	0.999268
1015.145521	0.998956
1015.438628	0.998032
1015.731699	0.998932
1016.024736	0.998804
1016.317737	0.999142
1016.610703	0.999446
1016.903635	0.999738
1017.196531	0.999185
1017.489393	0.999808
1017.782219	0.999102
1018.075011	0.998532
1018.367768	0.999234
1018.660490	0.999723
1018.953177	0.999723
1019.245829	0.999723
