Dividing Wavelength (nm)	Counts (n)	Blue Motor Position (mm): 0.000000	Red Motor Position (mm): 12.900000	
326.493990	1.001795
326.888308	1.001795
327.282561	1.001795
327.676750	0.999480
328.070874	0.999650
328.464933	0.998780
328.858929	0.998485
329.252859	0.999455
329.646726	0.998383
330.040528	0.999536
330.434265	0.998938
330.827938	1.000071
331.221547	1.000039
331.615091	0.999127
332.008571	1.000510
332.401986	1.000118
332.795338	0.999720
333.188625	0.998472
333.581847	0.999907
333.975006	0.998278
334.368100	0.998496
334.761129	0.999652
335.154095	1.001015
335.546996	0.998417
335.939833	0.993084
336.332606	0.993688
336.725315	0.994195
337.117960	0.994692
337.510540	0.993031
337.903056	0.993390
338.295508	0.992397
338.687896	0.993502
339.080220	0.992783
339.472480	0.993248
339.864676	0.993023
340.256807	0.993370
340.648875	0.994258
341.040879	0.994068
341.432818	0.994228
341.824694	0.993222
342.216506	0.993596
342.608253	0.992878
342.999937	0.992864
343.391557	0.992932
343.783113	0.994378
344.174605	0.992685
344.566033	0.994182
344.957397	0.992139
345.348697	0.993621
345.739934	0.994228
346.131106	0.992632
346.522215	0.994102
346.913260	0.993412
347.304241	0.994221
347.695159	0.992920
348.086012	0.992179
348.476802	0.992586
348.867528	0.994119
349.258191	0.992673
349.648789	0.993573
350.039324	0.993803
350.429796	0.993409
350.820203	0.994011
351.210548	0.992390
351.600828	0.992804
351.991045	0.993895
352.381198	0.991712
352.771288	0.992550
353.161314	0.993073
353.551276	0.995306
353.941175	0.992834
354.331010	0.992989
354.720782	0.992793
355.110490	0.993991
355.500135	0.993810
355.889717	0.994542
356.279235	0.993128
356.668689	0.992502
357.058080	0.993832
357.447408	0.994365
357.836672	0.993573
358.225873	0.994160
358.615010	0.993852
359.004084	0.993570
359.393095	0.993047
359.782043	0.993476
360.170927	0.994782
360.559748	0.993294
360.948505	0.992886
361.337199	0.993838
361.725830	0.993107
362.114398	0.993016
362.502903	0.994423
362.891344	0.994722
363.279722	0.992852
363.668037	0.993438
364.056289	0.992816
364.444478	0.992734
364.832603	0.993667
365.220665	0.993444
365.608665	0.993101
365.996601	0.992976
366.384474	0.993555
366.772284	0.993380
367.160031	0.992425
367.547715	0.992025
367.935336	0.993000
368.322893	0.992723
368.710388	0.991353
369.097820	0.991645
369.485189	0.992159
369.872495	0.992559
370.259738	0.991452
370.646918	0.992655
371.034035	0.992655
371.421090	0.991848
371.808081	0.991440
372.195010	0.992294
372.581875	0.993167
372.968678	0.993669
373.355418	0.993245
373.742096	0.992004
374.128710	0.992963
374.515262	0.993380
374.901751	0.993664
375.288177	0.992809
375.674540	0.993341
376.060841	0.991735
376.447079	0.992628
376.833254	0.993272
377.219367	0.993216
377.605417	0.992935
377.991404	0.993090
378.377329	0.992341
378.763191	0.991449
379.148991	0.992997
379.534727	0.992529
379.920402	0.992256
380.306013	0.992867
380.691563	0.993712
381.077049	0.992645
381.462474	0.992417
381.847835	0.992589
382.233134	0.992107
382.618371	0.992586
383.003545	0.992434
383.388657	0.992502
383.773706	0.993821
384.158693	0.994047
384.543618	0.993104
384.928480	0.993061
385.313280	0.993032
385.698017	0.993409
386.082692	0.992371
386.467305	0.992821
386.851856	0.991447
387.236344	0.990199
387.620770	0.989079
388.005133	0.988700
388.389435	0.988418
388.773674	0.985078
389.157851	0.984706
389.541965	0.980817
389.926018	0.978257
390.310008	0.976415
390.693936	0.972033
391.077802	0.967747
391.461606	0.964489
391.845348	0.959471
392.229027	0.956617
392.612645	0.951223
392.996200	0.944220
393.379694	0.938206
393.763125	0.931257
394.146494	0.925877
394.529801	0.917426
394.913047	0.909249
395.296230	0.903628
395.679351	0.895505
396.062410	0.886327
396.445408	0.881224
396.828343	0.871209
397.211217	0.862594
397.594028	0.858483
397.976778	0.845970
398.359466	0.837232
398.742092	0.826321
399.124656	0.823378
399.507158	0.809839
399.889598	0.800682
400.271977	0.787406
400.654294	0.781877
401.036549	0.772897
401.418742	0.765993
401.800874	0.748102
402.182944	0.738911
402.564952	0.724494
402.946898	0.718860
403.328783	0.710049
403.710606	0.710565
404.092367	0.685542
404.474067	0.681571
404.855705	0.672986
405.237282	0.673241
405.618797	0.655785
406.000250	0.645719
406.381642	0.631280
406.762972	0.629165
407.144240	0.622615
407.525447	0.617334
407.906593	0.605300
408.287677	0.595231
408.668700	0.598739
409.049661	0.587537
409.430560	0.580099
409.811399	0.583281
410.192176	0.562008
410.572891	0.565598
410.953545	0.551815
411.334138	0.560578
411.714669	0.551184
412.095139	0.559695
412.475547	0.541906
412.855894	0.541834
413.236180	0.538995
413.616405	0.542059
413.996568	0.531262
414.376670	0.535742
414.756711	0.539900
415.136691	0.534487
415.516609	0.525469
415.896466	0.520493
416.276262	0.515580
416.655997	0.517148
417.035670	0.498099
417.415283	0.489920
417.794834	0.493528
418.174324	0.498535
418.553753	0.507620
418.933121	0.488885
419.312428	0.482414
419.691674	0.487832
420.070859	0.476512
420.449983	0.483762
420.829045	0.473783
421.208047	0.482251
421.586988	0.476322
421.965867	0.474888
422.344686	0.463985
422.723444	0.475322
423.102141	0.492056
423.480777	0.465094
423.859352	0.485510
424.237866	0.462985
424.616319	0.463459
424.994712	0.454602
425.373044	0.464789
425.751314	0.453129
426.129524	0.469340
426.507673	0.453129
426.885762	0.446508
427.263789	0.452027
427.641756	0.461589
428.019662	0.451934
428.397508	0.451100
428.775292	0.455271
429.153016	0.447377
429.530679	0.453640
429.908282	0.447055
430.285824	0.456607
430.663305	0.435288
431.040726	0.456072
431.418086	0.456978
431.795385	0.448297
432.172624	0.446487
432.549802	0.447517
432.926920	0.446611
433.303977	0.445422
433.680974	0.443119
434.057910	0.441048
434.434786	0.440856
434.811601	0.443498
435.188355	0.425459
435.565050	0.434958
435.941683	0.436348
436.318257	0.420657
436.694770	0.420982
437.071222	0.419310
437.447614	0.424082
437.823946	0.430715
438.200218	0.419924
438.576429	0.429152
438.952580	0.422630
439.328670	0.419339
439.704700	0.425547
440.080670	0.427074
440.456580	0.407717
440.832429	0.416161
441.208218	0.427107
441.583947	0.416181
441.959616	0.415786
442.335224	0.420681
442.710773	0.411925
443.086261	0.409706
443.461689	0.423347
443.837057	0.413871
444.212365	0.403592
444.587612	0.410999
444.962800	0.400131
445.337927	0.401688
445.712995	0.427582
446.088002	0.390634
446.462949	0.400812
446.837837	0.405165
447.212664	0.394541
447.587431	0.385710
447.962139	0.356574
448.336786	0.315890
448.711374	0.325900
449.085901	0.369632
449.460369	0.374019
449.834776	0.378223
450.209124	0.356928
450.583412	0.349619
450.957640	0.342937
451.331808	0.354150
451.705917	0.377418
452.079965	0.381722
452.453954	0.370122
452.827883	0.377272
453.201752	0.372017
453.575562	0.383374
453.949311	0.371804
454.323001	0.378158
454.696632	0.373893
455.070202	0.366491
455.443713	0.358413
455.817164	0.353475
456.190556	0.348979
456.563888	0.346134
456.937160	0.343297
457.310373	0.360702
457.683526	0.359481
458.056619	0.364890
458.429653	0.365986
458.802628	0.369109
459.175542	0.363602
459.548398	0.345863
459.921194	0.338643
460.293930	0.338423
460.666607	0.316114
461.039224	0.304786
461.411782	0.299944
461.784280	0.299611
462.156719	0.303817
462.529099	0.308288
462.901419	0.323881
463.273680	0.328457
463.645882	0.328043
464.018024	0.333978
464.390106	0.326935
464.762130	0.311985
465.134094	0.294661
465.505999	0.263734
465.877845	0.234123
466.249631	0.221378
466.621358	0.228985
466.993026	0.242556
467.364634	0.248690
467.736184	0.257869
468.107674	0.266330
468.479105	0.265019
468.850477	0.272081
469.221790	0.279013
469.593043	0.289177
469.964238	0.293915
470.335373	0.293280
470.706449	0.291643
471.077467	0.291965
471.448425	0.254319
471.819324	0.229964
472.190164	0.229361
472.560945	0.258148
472.931667	0.280359
473.302330	0.284542
473.672934	0.296147
474.043479	0.284466
474.413965	0.286139
474.784393	0.289984
475.154761	0.284932
475.525070	0.281526
475.895321	0.287833
476.265513	0.281993
476.635645	0.277069
477.005719	0.276859
477.375734	0.273824
477.745691	0.267072
478.115588	0.263422
478.485427	0.256815
478.855207	0.243734
479.224928	0.226381
479.594591	0.214513
479.964194	0.218115
480.333739	0.219231
480.703226	0.220651
481.072653	0.219186
481.442022	0.214604
481.811333	0.211259
482.180584	0.214645
482.549777	0.219999
482.918912	0.223377
483.287988	0.223029
483.657005	0.222601
484.025964	0.229097
484.394864	0.226421
484.763706	0.226998
485.132489	0.232006
485.501213	0.232652
485.869879	0.230987
486.238487	0.234569
486.607036	0.232069
486.975527	0.236638
487.343959	0.232672
487.712333	0.231972
488.080648	0.233527
488.448905	0.232326
488.817104	0.233817
489.185244	0.228003
489.553326	0.225049
489.921350	0.215023
490.289315	0.197514
490.657222	0.192515
491.025070	0.193817
491.392861	0.195767
491.760593	0.201554
492.128267	0.207293
492.495883	0.212698
492.863440	0.218703
493.230939	0.225335
493.598380	0.226381
493.965763	0.228820
494.333088	0.231036
494.700354	0.232484
495.067563	0.231262
495.434713	0.234771
495.801805	0.232740
496.168839	0.234069
496.535815	0.235264
496.902733	0.235347
497.269593	0.237045
497.636395	0.234794
498.003139	0.234963
498.369825	0.237920
498.736453	0.234345
499.103023	0.235897
499.469535	0.235383
499.835989	0.235365
500.202385	0.236362
500.568723	0.239658
500.935003	0.234755
501.301226	0.239286
501.667390	0.233469
502.033497	0.231703
502.399546	0.234465
502.765537	0.236424
503.131470	0.234778
503.497345	0.231178
503.863163	0.239676
504.228923	0.232677
504.594625	0.231561
504.960269	0.236946
505.325856	0.232136
505.691385	0.236426
506.056856	0.233187
506.422270	0.232631
506.787625	0.235086
507.152924	0.232698
507.518164	0.232987
507.883347	0.234341
508.248472	0.236426
508.613540	0.231470
508.978550	0.233754
509.343503	0.234324
509.708398	0.232179
510.073236	0.229716
510.438016	0.229756
510.802738	0.230305
511.167403	0.229428
511.532010	0.231562
511.896561	0.227047
512.261053	0.225788
512.625488	0.228045
512.989866	0.228103
513.354186	0.228519
513.718449	0.230452
514.082655	0.226604
514.446803	0.228916
514.810894	0.226538
515.174927	0.229215
515.538904	0.228782
515.902822	0.225421
516.266684	0.227884
516.630488	0.229184
516.994235	0.227751
517.357925	0.226552
517.721558	0.225031
518.085133	0.224419
518.448651	0.224508
518.812112	0.226776
519.175516	0.226310
519.538863	0.223951
519.902152	0.225429
520.265385	0.222712
520.628560	0.224216
520.991678	0.224584
521.354739	0.223484
521.717743	0.224642
522.080690	0.225196
522.443580	0.222560
522.806413	0.223821
523.169189	0.222826
523.531908	0.221742
523.894569	0.225386
524.257174	0.225263
524.619722	0.222921
524.982213	0.223978
525.344647	0.223035
525.707025	0.224063
526.069345	0.221835
526.431608	0.223698
526.793815	0.221631
527.155964	0.225504
527.518057	0.224628
527.880093	0.225695
528.242072	0.224145
528.603995	0.226133
528.965860	0.227981
529.327669	0.226766
529.689421	0.227673
530.051117	0.228532
530.412755	0.226043
530.774337	0.228275
531.135862	0.228645
531.497331	0.228134
531.858743	0.231017
532.220098	0.227767
532.581396	0.230268
532.942638	0.230522
533.303824	0.231566
533.664953	0.231740
534.026025	0.233049
534.387040	0.231117
534.747999	0.231144
535.108902	0.230132
535.469748	0.234935
535.830537	0.232881
536.191270	0.233113
536.551947	0.232563
536.912567	0.232585
537.273131	0.234759
537.633638	0.234810
537.994089	0.234964
538.354483	0.236210
538.714821	0.233115
539.075103	0.232908
539.435328	0.233586
539.795497	0.237463
540.155609	0.234111
540.515665	0.232156
540.875665	0.237811
541.235609	0.236273
541.595496	0.236402
541.955328	0.232793
542.315102	0.235751
542.674821	0.236542
543.034483	0.236397
543.394090	0.236221
543.753640	0.238142
544.113134	0.233323
544.472571	0.236530
544.831953	0.233459
545.191278	0.237567
545.550548	0.237174
545.909761	0.233889
546.268918	0.234551
546.628019	0.232782
546.987064	0.235407
547.346053	0.237414
547.704986	0.235227
548.063863	0.235318
548.422684	0.235527
548.781449	0.237729
549.140158	0.235219
549.498811	0.237864
549.857408	0.241051
550.215949	0.235812
550.574434	0.239025
550.932864	0.237018
551.291237	0.235672
551.649555	0.236961
552.007817	0.236666
552.366022	0.237389
552.724173	0.237827
553.082267	0.237944
553.440305	0.234855
553.798288	0.239191
554.156215	0.235983
554.514086	0.236910
554.871902	0.239826
555.229661	0.238965
555.587365	0.239494
555.945014	0.241895
556.302606	0.238878
556.660143	0.241463
557.017625	0.237925
557.375050	0.240426
557.732421	0.237398
558.089735	0.239605
558.446994	0.239247
558.804197	0.238604
559.161345	0.238569
559.518437	0.242065
559.875474	0.239702
560.232455	0.239024
560.589381	0.240349
560.946251	0.240233
561.303065	0.237534
561.659825	0.239428
562.016528	0.240832
562.373177	0.243784
562.729770	0.240761
563.086307	0.243417
563.442789	0.241131
563.799216	0.243785
564.155587	0.242507
564.511904	0.243580
564.868164	0.243760
565.224370	0.243672
565.580520	0.245351
565.936615	0.245310
566.292654	0.247954
566.648638	0.245116
567.004567	0.246022
567.360441	0.246666
567.716260	0.248581
568.072023	0.246288
568.427732	0.246919
568.783385	0.249692
569.138982	0.247752
569.494525	0.247352
569.850013	0.250307
570.205445	0.248627
570.560823	0.251163
570.916145	0.253042
571.271412	0.251362
571.626625	0.253035
571.981782	0.253136
572.336884	0.254296
572.691931	0.253752
573.046923	0.255340
573.401860	0.256479
573.756743	0.257964
574.111570	0.257189
574.466342	0.257465
574.821059	0.256772
575.175722	0.259480
575.530330	0.259342
575.884882	0.259464
576.239380	0.261556
576.593823	0.261869
576.948211	0.261731
577.302544	0.264481
577.656823	0.264200
578.011047	0.264402
578.365216	0.264893
578.719330	0.267032
579.073389	0.266525
579.427394	0.268467
579.781344	0.269153
580.135239	0.270319
580.489080	0.269954
580.842866	0.273145
581.196597	0.272917
581.550273	0.271507
581.903895	0.272374
582.257463	0.270565
582.610975	0.273805
582.964434	0.273627
583.317837	0.276346
583.671186	0.276300
584.024481	0.276397
584.377721	0.279129
584.730906	0.279556
585.084037	0.278749
585.437113	0.280431
585.790135	0.279739
586.143103	0.283054
586.496016	0.284008
586.848874	0.281662
587.201679	0.282421
587.554428	0.285788
587.907124	0.284325
588.259765	0.284865
588.612352	0.285537
588.964884	0.289444
589.317362	0.288852
589.669786	0.288518
590.022155	0.287707
590.374470	0.286837
590.726731	0.289015
591.078937	0.293283
591.431090	0.289740
591.783188	0.294271
592.135232	0.294552
592.487222	0.294334
592.839157	0.292800
593.191038	0.294644
593.542866	0.296501
593.894639	0.300497
594.246358	0.298400
594.598022	0.297941
594.949633	0.301572
595.301190	0.302297
595.652692	0.301485
596.004141	0.297547
596.355535	0.305494
596.706876	0.305734
597.058162	0.308619
597.409395	0.305762
597.760573	0.303491
598.111698	0.306836
598.462768	0.307044
598.813785	0.308232
599.164748	0.309774
599.515657	0.309938
599.866511	0.313572
600.217312	0.308521
600.568060	0.314241
600.918753	0.310737
601.269392	0.311232
601.619978	0.314490
601.970510	0.312199
602.320988	0.312259
602.671412	0.310015
603.021783	0.312530
603.372100	0.313636
603.722363	0.313333
604.072572	0.314654
604.422728	0.314114
604.772830	0.316127
605.122878	0.316038
605.472872	0.316185
605.822813	0.314764
606.172701	0.317768
606.522534	0.315103
606.872314	0.314748
607.222041	0.316016
607.571714	0.314271
607.921333	0.315623
608.270899	0.315006
608.620411	0.311786
608.969870	0.315784
609.319276	0.315859
609.668627	0.316014
610.017926	0.313950
610.367171	0.312820
610.716362	0.313579
611.065500	0.313672
611.414585	0.312660
611.763616	0.312996
612.112594	0.313396
612.461518	0.312915
612.810389	0.311047
613.159207	0.312844
613.507971	0.314982
613.856682	0.310532
614.205340	0.312138
614.553945	0.308961
614.902496	0.312804
615.250994	0.310675
615.599439	0.311403
615.947830	0.311046
616.296169	0.311726
616.644454	0.311374
616.992686	0.311302
617.340864	0.309535
617.688990	0.312971
618.037063	0.309462
618.385082	0.311468
618.733048	0.308334
619.080961	0.310994
619.428821	0.310080
619.776628	0.309653
620.124382	0.311573
620.472083	0.311887
620.819731	0.311237
621.167326	0.315000
621.514868	0.314994
621.862357	0.318978
622.209793	0.318654
622.557176	0.321061
622.904506	0.321999
623.251783	0.324312
623.599007	0.326692
623.946179	0.326365
624.293297	0.328122
624.640363	0.331582
624.987376	0.332503
625.334336	0.335202
625.681243	0.337411
626.028097	0.338111
626.374899	0.339053
626.721647	0.338817
627.068343	0.342378
627.414987	0.343420
627.761577	0.346109
628.108115	0.344129
628.454600	0.349126
628.801032	0.346137
629.147412	0.348600
629.493739	0.348930
629.840014	0.351945
630.186236	0.349197
630.532405	0.354957
630.878521	0.352184
631.224585	0.354415
631.570597	0.358035
631.916556	0.356719
632.262462	0.356824
632.608316	0.358916
632.954117	0.359696
633.299866	0.360686
633.645562	0.361159
633.991206	0.365442
634.336797	0.368635
634.682336	0.370834
635.027823	0.371932
635.373257	0.372337
635.718639	0.376114
636.063968	0.375577
636.409245	0.381463
636.754470	0.381460
637.099642	0.383907
637.444762	0.387493
637.789829	0.386603
638.134845	0.390407
638.479808	0.391356
638.824719	0.390782
639.169577	0.394989
639.514383	0.394003
639.859137	0.397835
640.203839	0.398142
640.548489	0.398028
640.893086	0.400293
641.237632	0.401037
641.582125	0.400147
641.926566	0.401257
642.270955	0.401235
642.615292	0.401496
642.959576	0.400852
643.303809	0.401304
643.647990	0.401162
643.992118	0.401352
644.336195	0.404752
644.680219	0.403639
645.024192	0.404066
645.368112	0.398095
645.711981	0.396799
646.055797	0.391864
646.399562	0.394643
646.743274	0.386381
647.086935	0.383937
647.430544	0.383684
647.774101	0.382749
648.117606	0.382482
648.461059	0.382905
648.804460	0.385013
649.147810	0.390671
649.491108	0.392750
649.834354	0.393500
650.177548	0.399198
650.520690	0.404610
650.863781	0.406018
651.206820	0.404980
651.549807	0.410236
651.892742	0.414084
652.235626	0.413539
652.578458	0.414600
652.921238	0.420526
653.263967	0.418337
653.606644	0.422025
653.949269	0.422098
654.291843	0.425921
654.634365	0.422789
654.976836	0.425567
655.319255	0.425336
655.661622	0.427287
656.003938	0.427604
656.346203	0.430512
656.688416	0.427886
657.030577	0.431107
657.372687	0.433826
657.714746	0.434595
658.056753	0.431668
658.398708	0.435038
658.740612	0.436744
659.082465	0.432566
659.424266	0.433980
659.766016	0.432348
660.107715	0.435422
660.449362	0.434124
660.790958	0.435271
661.132503	0.435557
661.473996	0.433506
661.815438	0.433815
662.156829	0.433578
662.498168	0.434838
662.839456	0.435834
663.180693	0.433973
663.521879	0.433566
663.863013	0.434565
664.204097	0.433627
664.545129	0.430178
664.886110	0.430830
665.227040	0.428316
665.567918	0.430521
665.908746	0.428903
666.249522	0.428135
666.590248	0.429118
666.930922	0.427764
667.271545	0.426654
667.612118	0.426778
667.952639	0.427876
668.293109	0.426817
668.633528	0.429579
668.973896	0.429347
669.314213	0.430113
669.654480	0.431185
669.994695	0.431785
670.334859	0.432286
670.674973	0.433042
671.015035	0.432823
671.355047	0.433070
671.695008	0.433514
672.034918	0.435979
672.374777	0.434863
672.714585	0.436151
673.054342	0.436208
673.394049	0.436163
673.733705	0.434181
674.073310	0.435747
674.412864	0.438327
674.752368	0.438677
675.091820	0.438205
675.431223	0.443344
675.770574	0.443084
676.109875	0.446173
676.449125	0.446260
676.788324	0.448200
677.127473	0.453642
677.466571	0.453587
677.805619	0.455102
678.144616	0.456070
678.483562	0.457965
678.822458	0.460308
679.161303	0.461606
679.500098	0.461768
679.838842	0.463820
680.177535	0.463287
680.516179	0.461201
680.854771	0.461133
681.193314	0.453912
681.531805	0.445407
681.870247	0.433849
682.208638	0.426649
682.546978	0.425835
682.885268	0.427051
683.223508	0.433472
683.561697	0.436795
683.899836	0.439731
684.237925	0.443267
684.575963	0.445941
684.913951	0.448594
685.251889	0.444481
685.589776	0.446918
685.927614	0.448867
686.265401	0.443455
686.603137	0.444397
686.940824	0.438605
687.278460	0.436704
687.616046	0.436234
687.953582	0.431034
688.291068	0.432594
688.628504	0.428096
688.965889	0.430373
689.303224	0.434182
689.640510	0.438517
689.977745	0.444268
690.314930	0.452168
690.652065	0.457102
690.989150	0.464329
691.326185	0.470994
691.663170	0.475627
692.000105	0.482621
692.336990	0.489804
692.673825	0.492281
693.010610	0.498696
693.347345	0.504605
693.684030	0.506326
694.020665	0.511026
694.357251	0.519200
694.693786	0.519105
695.030272	0.523434
695.366707	0.526500
695.703093	0.530558
696.039429	0.528465
696.375716	0.529659
696.711952	0.532072
697.048139	0.534710
697.384276	0.536663
697.720363	0.534689
698.056400	0.533081
698.392388	0.539479
698.728326	0.542441
699.064214	0.544755
699.400053	0.545601
699.735842	0.549247
700.071581	0.552932
700.407270	0.555339
700.742910	0.557565
701.078501	0.564859
701.414042	0.564663
701.749533	0.567884
702.084974	0.576143
702.420366	0.569285
702.755709	0.576395
703.091002	0.584208
703.426246	0.577291
703.761440	0.583403
704.096584	0.587895
704.431679	0.585147
704.766725	0.586562
705.101721	0.588763
705.436668	0.584970
705.771565	0.591788
706.106413	0.589203
706.441212	0.584251
706.775961	0.583281
707.110661	0.585728
707.445311	0.581949
707.779913	0.578975
708.114465	0.577770
708.448967	0.573958
708.783421	0.566730
709.117825	0.560313
709.452180	0.560327
709.786485	0.554613
710.120742	0.544798
710.454949	0.546340
710.789107	0.539355
711.123216	0.529718
711.457275	0.531068
711.791286	0.522347
712.125247	0.521745
712.459159	0.532056
712.793023	0.524293
713.126837	0.528751
713.460602	0.529301
713.794318	0.538441
714.127985	0.537034
714.461602	0.547548
714.795171	0.551292
715.128691	0.559358
715.462162	0.566169
715.795584	0.571171
716.128957	0.574855
716.462281	0.581202
716.795556	0.584516
717.128782	0.589694
717.461960	0.599898
717.795088	0.598143
718.128167	0.603677
718.461198	0.612742
718.794180	0.613158
719.127113	0.616178
719.459997	0.619825
719.792833	0.625394
720.125619	0.626908
720.458357	0.633048
720.791046	0.632403
721.123686	0.635983
721.456278	0.642825
721.788821	0.640641
722.121315	0.644396
722.453761	0.648726
722.786158	0.646655
723.118506	0.643063
723.450805	0.651236
723.783056	0.647421
724.115259	0.643521
724.447412	0.644068
724.779518	0.644967
725.111574	0.643584
725.443582	0.639406
725.775542	0.642110
726.107453	0.634200
726.439315	0.632905
726.771129	0.632397
727.102895	0.625630
727.434612	0.618617
727.766281	0.616474
728.097901	0.615867
728.429473	0.615597
728.760996	0.613584
729.092471	0.613356
729.423897	0.617916
729.755276	0.617009
730.086606	0.616632
730.417887	0.611240
730.749120	0.601678
731.080305	0.592727
731.411442	0.588448
731.742530	0.593307
732.073570	0.593405
732.404562	0.585291
732.735506	0.587206
733.066401	0.591886
733.397249	0.600600
733.728048	0.611729
734.058798	0.624557
734.389501	0.635116
734.720156	0.644736
735.050762	0.652788
735.381320	0.653714
735.711831	0.662665
736.042293	0.667789
736.372707	0.663166
736.703073	0.668727
737.033391	0.670480
737.363661	0.667810
737.693883	0.661648
738.024056	0.662106
738.354182	0.662488
738.684260	0.650789
739.014290	0.647550
739.344272	0.648550
739.674207	0.641579
740.004093	0.640957
740.333931	0.641657
740.663722	0.641039
740.993464	0.641889
741.323159	0.645326
741.652806	0.650785
741.982405	0.656331
742.311956	0.659797
742.641460	0.662300
742.970915	0.666418
743.300323	0.674405
743.629683	0.680183
743.958996	0.682331
744.288260	0.686066
744.617477	0.692390
744.946647	0.694182
745.275768	0.699987
745.604842	0.698735
745.933869	0.708734
746.262847	0.709773
746.591778	0.703467
746.920662	0.709878
747.249498	0.715382
747.578286	0.707054
747.907027	0.702899
748.235720	0.702988
748.564365	0.698914
748.892963	0.698507
749.221514	0.701342
749.550017	0.707151
749.878473	0.706757
750.206881	0.712620
750.535242	0.714199
750.863555	0.713939
751.191821	0.715036
751.520039	0.717621
751.848210	0.722972
752.176334	0.715371
752.504411	0.715162
752.832440	0.723166
753.160421	0.726120
753.488356	0.725382
753.816243	0.723339
754.144082	0.730900
754.471875	0.734929
754.799620	0.729603
755.127318	0.731354
755.454969	0.731208
755.782572	0.730597
756.110129	0.735382
756.437638	0.737290
756.765100	0.733940
757.092515	0.732603
757.419882	0.731130
757.747203	0.736409
758.074477	0.735733
758.401703	0.733279
758.728882	0.728426
759.056014	0.726995
759.383099	0.726802
759.710138	0.726714
760.037129	0.723148
760.364073	0.718280
760.690970	0.719488
761.017820	0.725490
761.344623	0.721292
761.671379	0.711917
761.998088	0.700196
762.324751	0.678205
762.651366	0.636100
762.977935	0.569147
763.304456	0.516379
763.630931	0.507191
763.957359	0.546601
764.283740	0.590972
764.610074	0.618296
764.936362	0.648981
765.262602	0.675844
765.588796	0.697879
765.914943	0.715533
766.241044	0.732962
766.567097	0.740698
766.893104	0.749635
767.219064	0.756054
767.544978	0.762862
767.870845	0.775830
768.196665	0.780194
768.522438	0.778128
768.848165	0.778979
769.173846	0.788455
769.499479	0.792867
769.825066	0.795947
770.150607	0.801942
770.476101	0.796267
770.801548	0.798672
771.126949	0.809199
771.452303	0.813380
771.777611	0.811414
772.102872	0.811439
772.428087	0.817256
772.753256	0.820642
773.078378	0.822664
773.403453	0.831536
773.728482	0.835478
774.053465	0.828784
774.378401	0.832915
774.703291	0.840649
775.028135	0.841097
775.352932	0.842038
775.677683	0.843704
776.002388	0.845608
776.327046	0.844131
776.651658	0.847292
776.976224	0.850852
777.300743	0.851761
777.625216	0.853739
777.949643	0.854726
778.274024	0.856026
778.598359	0.856864
778.922647	0.855914
779.246889	0.856151
779.571086	0.859264
779.895236	0.862906
780.219339	0.860506
780.543397	0.857441
780.867409	0.854662
781.191374	0.857623
781.515294	0.859236
781.839167	0.858124
782.162995	0.860761
782.486776	0.859320
782.810511	0.858456
783.134201	0.862268
783.457844	0.861017
783.781441	0.863083
784.104993	0.869686
784.428498	0.869716
784.751958	0.865524
785.075372	0.867635
785.398739	0.871578
785.722061	0.867779
786.045337	0.862555
786.368568	0.867271
786.691752	0.870262
787.014891	0.856160
787.337983	0.847539
787.661030	0.839938
787.984031	0.822209
788.306987	0.808819
788.629897	0.810802
788.952760	0.815505
789.275579	0.820287
789.598351	0.835135
789.921078	0.846934
790.243759	0.850627
790.566395	0.855078
790.888984	0.862101
791.211529	0.867077
791.534027	0.870456
791.856480	0.873412
792.178888	0.878037
792.501249	0.879676
792.823566	0.881732
793.145836	0.881131
793.468062	0.883142
793.790241	0.883854
794.112375	0.881763
794.434464	0.877531
794.756507	0.876590
795.078505	0.876212
795.400457	0.871322
795.722364	0.858893
796.044226	0.852580
796.366042	0.849883
796.687812	0.853874
797.009538	0.850467
797.331218	0.853840
797.652852	0.858706
797.974442	0.863664
798.295986	0.862991
798.617484	0.865879
798.938938	0.869661
799.260346	0.875194
799.581709	0.876938
799.903026	0.878495
800.224299	0.879655
800.545526	0.882852
800.866708	0.887769
801.187845	0.892075
801.508936	0.889278
801.829983	0.889119
802.150984	0.891256
802.471940	0.896690
802.792851	0.895499
803.113717	0.897164
803.434538	0.894012
803.755314	0.897711
804.076045	0.898398
804.396731	0.898457
804.717372	0.898315
805.037967	0.901014
805.358518	0.898492
805.679024	0.895947
805.999485	0.895813
806.319901	0.895866
806.640272	0.896998
806.960598	0.895123
807.280879	0.892540
807.601115	0.890746
807.921306	0.894238
808.241453	0.894755
808.561554	0.892932
808.881611	0.893045
809.201623	0.894594
809.521590	0.895323
809.841513	0.895379
810.161390	0.894881
810.481223	0.897234
810.801011	0.898855
811.120755	0.901991
811.440453	0.900411
811.760107	0.899521
812.079716	0.899673
812.399281	0.902428
812.718801	0.904899
813.038276	0.906714
813.357707	0.904762
813.677093	0.903298
813.996434	0.905788
814.315731	0.907481
814.634983	0.908367
814.954191	0.906764
815.273354	0.903626
815.592473	0.900106
815.911547	0.900205
816.230577	0.896999
816.549562	0.895672
816.868502	0.895136
817.187399	0.890790
817.506250	0.886346
817.825058	0.888598
818.143821	0.885006
818.462539	0.879088
818.781213	0.872103
819.099843	0.861300
819.418429	0.844994
819.736970	0.827820
820.055466	0.808560
820.373919	0.781959
820.692327	0.750450
821.010691	0.713322
821.329011	0.635753
821.647286	0.519119
821.965517	0.405366
822.283704	0.362296
822.601847	0.363465
822.919945	0.398782
823.237999	0.433055
823.556010	0.480777
823.873976	0.536400
824.191897	0.588190
824.509775	0.630185
824.827609	0.676775
825.145398	0.698955
825.463144	0.701732
825.780845	0.684789
826.098502	0.665521
826.416116	0.619229
826.733685	0.575380
827.051210	0.566946
827.368692	0.580888
827.686129	0.619002
828.003522	0.672296
828.320872	0.720675
828.638177	0.764657
828.955439	0.797462
829.272656	0.819412
829.589830	0.836985
829.906960	0.852301
830.224046	0.866071
830.541088	0.875779
830.858086	0.880801
831.175041	0.885289
831.491952	0.885466
831.808819	0.882053
832.125642	0.875171
832.442421	0.859791
832.759157	0.837463
833.075849	0.791650
833.392497	0.727702
833.709101	0.686983
834.025662	0.696049
834.342179	0.728147
834.658653	0.767591
834.975083	0.803625
835.291469	0.830577
835.607811	0.854286
835.924110	0.868997
836.240366	0.886377
836.556578	0.899304
836.872746	0.907674
837.188871	0.913022
837.504952	0.918308
837.820990	0.922648
838.136984	0.926269
838.452935	0.928435
838.768842	0.930701
839.084706	0.923344
839.400526	0.898119
839.716303	0.856793
840.032037	0.834213
840.347727	0.838321
840.663373	0.856863
840.978977	0.877627
841.294537	0.900821
841.610054	0.917651
841.925527	0.923927
842.240957	0.931840
842.556344	0.938694
842.871687	0.946117
843.186987	0.948431
843.502244	0.949317
843.817458	0.951645
844.132629	0.955753
844.447756	0.959886
844.762840	0.959247
845.077881	0.958960
845.392879	0.959149
845.707833	0.961806
846.022745	0.964672
846.337613	0.964355
846.652438	0.965511
846.967221	0.963280
847.281960	0.964930
847.596656	0.966187
847.911309	0.964316
848.225919	0.966532
848.540485	0.967827
848.855009	0.967954
849.169490	0.968398
849.483928	0.968710
849.798323	0.968406
850.112675	0.969316
850.426984	0.969214
850.741251	0.968804
851.055474	0.969241
851.369654	0.967270
851.683792	0.968699
851.997887	0.969195
852.311938	0.970561
852.625947	0.969211
852.939914	0.968588
853.253837	0.968687
853.567718	0.971022
853.881555	0.970218
854.195350	0.968288
854.509103	0.968811
854.822812	0.969387
855.136479	0.969056
855.450103	0.969612
855.763685	0.966843
856.077224	0.967879
856.390720	0.969817
856.704173	0.968232
857.017584	0.968290
857.330953	0.966135
857.644278	0.966837
857.957561	0.967995
858.270802	0.967062
858.584000	0.967765
858.897155	0.966142
859.210268	0.966016
859.523339	0.967710
859.836367	0.969596
860.149352	0.969513
860.462295	0.967306
860.775195	0.969543
861.088054	0.968518
861.400869	0.968539
861.713642	0.969558
862.026373	0.969926
862.339062	0.970457
862.651708	0.967149
862.964312	0.967181
863.276873	0.967811
863.589392	0.967558
863.901869	0.965783
864.214303	0.964885
864.526696	0.962353
864.839045	0.962954
865.151353	0.961278
865.463619	0.962863
865.775842	0.961608
866.088023	0.962039
866.400162	0.960971
866.712258	0.961233
867.024313	0.961592
867.336325	0.962168
867.648296	0.962341
867.960224	0.961226
868.272110	0.960610
868.583954	0.963752
868.895755	0.963429
869.207515	0.960645
869.519233	0.958441
869.830909	0.960486
870.142542	0.961647
870.454134	0.960138
870.765684	0.959463
871.077191	0.957838
871.388657	0.957922
871.700081	0.957245
872.011463	0.957242
872.322803	0.958223
872.634101	0.956861
872.945357	0.953841
873.256571	0.952585
873.567744	0.951222
873.878874	0.951818
874.189963	0.951050
874.501010	0.949937
874.812015	0.949465
875.122979	0.949901
875.433900	0.952016
875.744780	0.952795
876.055618	0.950204
876.366415	0.948962
876.677169	0.948458
876.987882	0.950215
877.298554	0.949650
877.609183	0.946851
877.919771	0.943155
878.230317	0.941160
878.540822	0.939048
878.851285	0.933684
879.161707	0.924773
879.472087	0.913236
879.782425	0.896942
880.092722	0.862267
880.402977	0.809690
880.713191	0.747221
881.023363	0.686916
881.333494	0.653977
881.643583	0.625285
881.953631	0.625340
882.263637	0.654386
882.573602	0.693637
882.883526	0.719520
883.193408	0.743200
883.503248	0.766748
883.813048	0.794708
884.122806	0.825128
884.432522	0.847968
884.742197	0.867246
885.051831	0.878579
885.361424	0.890174
885.670975	0.901871
885.980485	0.912028
886.289954	0.917398
886.599382	0.923431
886.908768	0.926384
887.218113	0.933319
887.527417	0.937367
887.836680	0.941126
888.145901	0.942200
888.455082	0.945646
888.764221	0.949117
889.073319	0.952458
889.382376	0.952097
889.691392	0.951900
890.000366	0.952195
890.309300	0.953137
890.618193	0.951685
890.927044	0.949951
891.235855	0.950302
891.544625	0.950638
891.853353	0.951049
892.162041	0.948525
892.470687	0.942571
892.779293	0.936673
893.087858	0.933127
893.396381	0.924015
893.704864	0.910934
894.013306	0.886435
894.321707	0.859639
894.630068	0.845109
894.938387	0.838836
895.246665	0.841507
895.554903	0.854517
895.863100	0.867861
896.171256	0.885102
896.479371	0.904152
896.787446	0.918022
897.095480	0.922845
897.403473	0.927983
897.711425	0.930547
898.019336	0.939936
898.327207	0.942046
898.635038	0.944406
898.942827	0.943819
899.250576	0.947344
899.558284	0.951922
899.865952	0.953559
900.173579	0.953624
900.481165	0.955214
900.788711	0.958758
901.096216	0.960499
901.403681	0.961215
901.711105	0.961619
902.018489	0.963667
902.325832	0.961468
902.633135	0.960235
902.940397	0.955008
903.247619	0.942386
903.554800	0.915375
903.861941	0.876286
904.169041	0.839184
904.476101	0.820714
904.783121	0.822033
905.090100	0.839254
905.397039	0.860555
905.703938	0.883694
906.010796	0.902744
906.317614	0.920859
906.624391	0.933540
906.931129	0.942389
907.237826	0.950872
907.544483	0.957766
907.851099	0.961941
908.157675	0.967013
908.464211	0.968859
908.770707	0.971848
909.077163	0.973099
909.383578	0.973631
909.689954	0.974453
909.996289	0.975008
910.302584	0.976920
910.608839	0.977915
910.915054	0.976619
911.221229	0.976122
911.527363	0.976213
911.833458	0.975576
912.139513	0.975608
912.445527	0.973480
912.751502	0.973122
913.057436	0.971206
913.363331	0.969414
913.669186	0.965556
913.975000	0.961023
914.280775	0.953914
914.586510	0.945542
914.892205	0.934327
915.197859	0.912111
915.503475	0.884192
915.809050	0.863816
916.114585	0.857859
916.420081	0.855093
916.725536	0.851471
917.030952	0.859982
917.336328	0.873369
917.641665	0.888256
917.946961	0.905239
918.252218	0.915459
918.557435	0.925587
918.862612	0.935161
919.167750	0.940078
919.472848	0.946664
919.777906	0.950182
920.082925	0.956367
920.387904	0.959756
920.692843	0.962493
920.997743	0.963005
921.302603	0.966359
921.607423	0.967444
921.912204	0.969949
922.216946	0.971035
922.521647	0.972198
922.826310	0.974684
923.130932	0.975976
923.435516	0.977596
923.740059	0.978316
924.044564	0.977799
924.349028	0.979584
924.653454	0.981773
924.957840	0.983994
925.262186	0.983326
925.566493	0.983703
925.870761	0.984271
926.174989	0.985763
926.479178	0.987082
926.783328	0.987630
927.087438	0.988270
927.391509	0.987356
927.695541	0.990500
927.999533	0.988788
928.303486	0.989034
928.607400	0.991786
928.911275	0.989225
929.215110	0.990282
929.518906	0.991279
929.822663	0.989806
930.126381	0.991227
930.430060	0.990942
930.733699	0.989690
931.037299	0.988469
931.340861	0.990191
931.644383	0.988291
931.947866	0.988548
932.251309	0.989071
932.554714	0.989199
932.858080	0.988320
933.161407	0.989284
933.464694	0.989986
933.767943	0.988606
934.071153	0.990168
934.374323	0.990421
934.677455	0.990585
934.980548	0.992117
935.283602	0.990167
935.586617	0.992169
935.889593	0.989856
936.192530	0.990541
936.495428	0.989633
936.798287	0.990204
937.101108	0.990438
937.403890	0.988098
937.706632	0.988389
938.009336	0.985891
938.312002	0.985425
938.614628	0.983986
938.917216	0.982481
939.219765	0.981638
939.522275	0.981557
939.824747	0.983150
940.127179	0.982103
940.429573	0.983119
940.731929	0.983743
941.034246	0.982740
941.336524	0.984901
941.638763	0.984657
941.940964	0.985886
942.243126	0.984666
942.545250	0.986712
942.847335	0.987229
943.149381	0.987014
943.451389	0.988469
943.753359	0.987425
944.055290	0.989706
944.357182	0.989113
944.659036	0.988684
944.960851	0.988544
945.262628	0.989383
945.564367	0.989814
945.866067	0.989005
946.167729	0.989772
946.469352	0.989399
946.770937	0.988060
947.072484	0.989359
947.373992	0.989375
947.675462	0.989929
947.976893	0.990130
948.278286	0.989167
948.579641	0.990781
948.880958	0.990272
949.182236	0.989706
949.483476	0.989951
949.784678	0.989526
950.085841	0.990830
950.386967	0.990573
950.688054	0.990593
950.989103	0.990221
951.290114	0.989055
951.591087	0.989585
951.892021	0.989336
952.192917	0.988908
952.493776	0.987186
952.794596	0.987866
953.095378	0.987696
953.396122	0.987468
953.696828	0.987694
953.997496	0.987735
954.298126	0.990213
954.598718	0.990302
954.899272	0.990265
955.199788	0.990073
955.500266	0.991457
955.800706	0.992538
956.101108	0.992809
956.401472	0.993164
956.701798	0.993660
957.002087	0.993166
957.302337	0.993479
957.602550	0.994652
957.902724	0.994340
958.202861	0.994082
958.502960	0.995620
958.803022	0.993567
959.103045	0.995005
959.403031	0.995274
959.702979	0.995348
960.002889	0.995519
960.302762	0.993964
960.602596	0.996737
960.902393	0.993523
961.202153	0.997287
961.501875	0.995906
961.801559	0.995387
962.101205	0.995438
962.400814	0.995573
962.700385	0.996370
962.999918	0.995827
963.299414	0.994808
963.598873	0.994986
963.898293	0.994844
964.197677	0.996395
964.497022	0.994951
964.796331	0.996755
965.095601	0.996357
965.394835	0.995024
965.694030	0.996904
965.993189	0.996058
966.292309	0.995520
966.591393	0.997258
966.890439	0.997216
967.189447	0.997985
967.488419	0.996985
967.787353	0.995866
968.086249	0.996700
968.385108	0.996990
968.683930	0.996013
968.982714	0.997661
969.281462	0.996014
969.580172	0.996589
969.878844	0.997249
970.177480	0.995965
970.476078	0.997751
970.774639	0.997295
971.073162	0.996781
971.371649	0.995852
971.670098	0.995767
971.968510	0.996540
972.266885	0.995320
972.565223	0.996267
972.863524	0.995586
973.161788	0.996060
973.460014	0.998233
973.758204	0.995212
974.056356	0.994475
974.354471	0.994197
974.652550	0.995929
974.950591	0.994842
975.248595	0.995707
975.546563	0.997209
975.844493	0.998448
976.142386	0.996271
976.440243	0.996669
976.738062	0.997540
977.035845	0.997345
977.333590	0.995718
977.631299	0.996563
977.928971	0.996303
978.226606	0.996801
978.524204	0.995545
978.821765	0.998178
979.119290	0.996653
979.416777	0.997117
979.714228	0.997030
980.011642	0.995470
980.309020	0.997643
980.606360	0.996711
980.903664	0.997810
981.200931	0.995755
981.498162	0.995098
981.795356	0.995070
982.092513	0.993159
982.389633	0.993234
982.686717	0.991205
982.983764	0.991152
983.280775	0.989139
983.577749	0.990440
983.874686	0.989900
984.171587	0.991882
984.468451	0.993649
984.765279	0.994569
985.062070	0.994205
985.358824	0.994533
985.655543	0.994835
985.952224	0.995227
986.248869	0.995324
986.545478	0.995969
986.842050	0.998277
987.138586	0.995204
987.435086	0.996792
987.731549	0.997799
988.027975	0.997079
988.324366	0.996560
988.620719	0.998155
988.917037	0.995620
989.213318	0.997528
989.509563	0.998915
989.805772	0.998198
990.101944	0.997955
990.398080	0.997417
990.694180	0.997324
990.990244	0.996965
991.286271	0.998638
991.582262	0.997024
991.878217	0.997689
992.174136	0.998347
992.470019	0.997756
992.765865	0.997930
993.061676	0.997999
993.357450	0.997618
993.653188	0.997124
993.948890	0.996188
994.244556	0.998739
994.540186	0.996755
994.835780	0.995557
995.131337	0.997229
995.426859	0.996610
995.722345	0.997060
996.017795	0.996748
996.313208	0.995830
996.608586	0.995790
996.903928	0.997295
997.199234	0.995958
997.494504	0.997442
997.789738	0.996344
998.084936	0.996842
998.380099	0.996641
998.675225	0.997708
998.970316	0.997972
999.265371	0.998204
999.560390	0.998196
999.855373	0.997688
1000.150320	0.998225
1000.445232	0.998458
1000.740108	0.996745
1001.034948	0.997461
1001.329752	0.998688
1001.624521	0.998656
1001.919254	0.998299
1002.213951	0.998152
1002.508613	0.999503
1002.803239	0.999346
1003.097829	0.999046
1003.392384	0.999535
1003.686903	0.997292
1003.981386	0.998445
1004.275834	0.999381
1004.570246	0.998327
1004.864623	0.999689
1005.158964	0.999016
1005.453270	0.999207
1005.747540	0.997495
1006.041775	0.998510
1006.335974	0.998488
1006.630138	0.998636
1006.924266	0.998921
1007.218359	1.000517
1007.512416	0.998972
1007.806438	0.998662
1008.100425	0.999222
1008.394376	0.998313
1008.688292	0.998460
1008.982172	0.999733
1009.276017	0.999794
1009.569827	0.998548
1009.863602	0.999123
1010.157341	1.000303
1010.451045	0.999595
1010.744714	0.999349
1011.038347	0.999870
1011.331945	0.997495
1011.625508	0.997760
1011.919036	0.998860
1012.212528	0.997990
1012.505986	0.998193
1012.799408	0.998354
1013.092795	0.999808
1013.386147	0.997784
1013.679464	0.999085
1013.972745	0.998467
1014.265992	0.996886
1014.559204	0.998461
1014.852380	1.000135
1015.145521	0.998748
1015.438628	0.998655
1015.731699	0.997930
1016.024736	0.998956
1016.317737	0.999112
1016.610703	0.998574
1016.903635	0.999372
1017.196531	0.998723
1017.489393	0.999722
1017.782219	0.999352
1018.075011	0.998930
1018.367768	0.998275
1018.660490	0.999661
1018.953177	0.999661
1019.245829	0.999661
